na_icke_saturated
Integration time [ms]:   2.000
Averaging Nr. [scans]: 100
Smoothing Nr. [pixels]: 0
Data measured with spectrometer [name]: 1804346U2
Wave   ;Sample   ;Dark     ;Reference;Scope Corrected for Dark
[nm]   ;[counts] ;[counts] ;[counts] 

 294.30;   -1.713;    4.620;    0.000;-6.33322
 294.47;    4.368;   -3.697;    0.000; 8.06520
 294.63;   -5.844;    2.008;    0.000;-7.85243
 294.80;    1.844;   -3.810;    0.000; 5.65478
 294.97;   -2.881;    7.771;    0.000;-10.65194
 295.14;    9.275;   -0.450;    0.000; 9.72471
 295.31;   -0.327;    4.242;    0.000;-4.56899
 295.48;   -2.912;    3.896;    0.000;-6.80886
 295.64;    1.258;    2.401;    0.000;-1.14298
 295.81;   -3.920;   -3.633;    0.000;-0.28686
 295.98;   -3.087;    3.895;    0.000;-6.98141
 296.15;   -5.074;   -4.617;    0.000;-0.45668
 296.32;   -5.193;    7.973;    0.000;-13.16571
 296.48;    1.274;   -1.028;    0.000; 2.30185
 296.65;   -7.213;    2.710;    0.000;-9.92218
 296.82;    4.850;    2.774;    0.000; 2.07608
 296.99;   -2.826;   -2.342;    0.000;-0.48430
 297.16;    0.689;    2.195;    0.000;-1.50599
 297.33;   -6.466;    6.105;    0.000;-12.57168
 297.49;   -0.834;   -5.439;    0.000; 4.60515
 297.66;    0.924;   -1.532;    0.000; 2.45610
 297.83;    3.681;   -0.631;    0.000; 4.31156
 298.00;   -8.060;    2.451;    0.000;-10.51110
 298.17;   -2.975;    3.692;    0.000;-6.66712
 298.33;   -2.095;   10.406;    0.000;-12.50124
 298.50;   -0.849;    4.952;    0.000;-5.80066
 298.67;   -7.016;    0.739;    0.000;-7.75470
 298.84;   -3.790;   -6.030;    0.000; 2.23909
 299.01;   -0.429;    2.028;    0.000;-2.45701
 299.17;    1.467;   -4.669;    0.000; 6.13579
 299.34;   -1.348;   -0.200;    0.000;-1.14820
 299.51;   -3.558;    2.800;    0.000;-6.35820
 299.68;  -10.174;   -1.156;    0.000;-9.01818
 299.85;   -3.532;    5.176;    0.000;-8.70782
 300.01;   -3.921;   -0.368;    0.000;-3.55324
 300.18;   -3.469;    4.651;    0.000;-8.11923
 300.35;    1.535;   11.519;    0.000;-9.98386
 300.52;   -5.788;   -0.498;    0.000;-5.28983
 300.69;   -1.885;    2.637;    0.000;-4.52163
 300.86;   -8.179;    5.290;    0.000;-13.46864
 301.02;   -4.710;    4.212;    0.000;-8.92170
 301.19;    2.665;    2.972;    0.000;-0.30732
 301.36;    1.619;   10.126;    0.000;-8.50749
 301.53;   -2.439;    0.232;    0.000;-2.67106
 301.70;   -2.736;    4.918;    0.000;-7.65390
 301.86;    1.225;   -1.213;    0.000; 2.43817
 302.03;   -6.261;    7.582;    0.000;-13.84344
 302.20;   -0.897;   -1.252;    0.000; 0.35486
 302.37;    1.165;    4.277;    0.000;-3.11144
 302.54;   -0.225;    2.434;    0.000;-2.65811
 302.70;    3.760;    3.506;    0.000; 0.25438
 302.87;   -0.498;    3.681;    0.000;-4.17840
 303.04;   -1.677;   -0.525;    0.000;-1.15212
 303.21;   -4.846;   -4.119;    0.000;-0.72672
 303.37;   -2.574;    2.087;    0.000;-4.66060
 303.54;    1.342;    0.182;    0.000; 1.16017
 303.71;   -5.147;    3.707;    0.000;-8.85331
 303.88;   -0.084;   -0.590;    0.000; 0.50575
 304.05;   -3.031;    3.702;    0.000;-6.73254
 304.21;   -0.870;   -3.745;    0.000; 2.87445
 304.38;   -5.058;    2.835;    0.000;-7.89296
 304.55;   -1.579;    0.316;    0.000;-1.89582
 304.72;   -2.680;    2.799;    0.000;-5.47908
 304.89;   -4.196;   -1.596;    0.000;-2.59998
 305.05;   -2.763;    1.329;    0.000;-4.09179
 305.22;   -5.886;    3.893;    0.000;-9.77855
 305.39;   -6.466;    7.132;    0.000;-13.59802
 305.56;   -1.866;    1.390;    0.000;-3.25613
 305.73;    9.224;   -2.934;    0.000;12.15812
 305.89;   -6.456;   -2.678;    0.000;-3.77795
 306.06;   -2.654;    3.721;    0.000;-6.37465
 306.23;    0.670;   -2.891;    0.000; 3.56072
 306.40;   -2.581;    5.406;    0.000;-7.98769
 306.56;   -2.272;    4.430;    0.000;-6.70135
 306.73;   -8.499;    9.077;    0.000;-17.57602
 306.90;    2.093;   -9.574;    0.000;11.66676
 307.07;    5.173;    3.675;    0.000; 1.49768
 307.24;   -6.402;   -1.586;    0.000;-4.81580
 307.40;    1.928;    2.919;    0.000;-0.99115
 307.57;   -0.587;    0.789;    0.000;-1.37553
 307.74;   -2.028;   -1.593;    0.000;-0.43538
 307.91;   -4.702;    3.990;    0.000;-8.69135
 308.08;   -7.735;    1.271;    0.000;-9.00639
 308.24;    6.302;   -1.848;    0.000; 8.14978
 308.41;   -2.791;   -6.798;    0.000; 4.00623
 308.58;   -2.382;    0.876;    0.000;-3.25886
 308.75;   -4.770;    9.274;    0.000;-14.04463
 308.91;   -4.546;   -2.337;    0.000;-2.20875
 309.08;   -8.603;   -2.431;    0.000;-6.17199
 309.25;   -0.086;   -2.752;    0.000; 2.66590
 309.42;   -8.381;    2.327;    0.000;-10.70829
 309.58;   -0.148;    1.576;    0.000;-1.72388
 309.75;   -8.469;    8.932;    0.000;-17.40177
 309.92;    3.827;    2.135;    0.000; 1.69213
 310.09;  -11.141;    2.103;    0.000;-13.24417
 310.26;    2.746;    3.819;    0.000;-1.07263
 310.42;   -6.746;    2.500;    0.000;-9.24593
 310.59;   -3.766;   -5.584;    0.000; 1.81773
 310.76;    2.401;    3.225;    0.000;-0.82328
 310.93;   -7.494;   -5.339;    0.000;-2.15465
 311.09;    3.027;    3.521;    0.000;-0.49349
 311.26;   -2.324;   -2.819;    0.000; 0.49495
 311.43;    0.163;    6.865;    0.000;-6.70128
 311.60;   -1.603;   -1.201;    0.000;-0.40199
 311.76;   -5.290;    1.556;    0.000;-6.84666
 311.93;    3.140;    6.244;    0.000;-3.10360
 312.10;   -8.661;    0.413;    0.000;-9.07364
 312.27;    0.317;   -3.264;    0.000; 3.58187
 312.44;   -1.265;    4.216;    0.000;-5.48104
 312.60;   -1.269;    1.235;    0.000;-2.50328
 312.77;   -2.041;   -2.091;    0.000; 0.04989
 312.94;   -0.431;   -1.419;    0.000; 0.98786
 313.11;   -4.718;    4.836;    0.000;-9.55375
 313.27;   -0.914;   -0.487;    0.000;-0.42668
 313.44;   -7.931;    3.297;    0.000;-11.22809
 313.61;    2.343;   -0.315;    0.000; 2.65748
 313.78;   -4.560;    0.481;    0.000;-5.04150
 313.94;   -2.844;    0.968;    0.000;-3.81243
 314.11;    1.503;   -3.441;    0.000; 4.94447
 314.28;   -1.260;   -1.330;    0.000; 0.07033
 314.45;   -5.506;    5.988;    0.000;-11.49430
 314.61;   -7.824;    0.145;    0.000;-7.96981
 314.78;   -1.605;    3.335;    0.000;-4.93961
 314.95;  -13.765;    4.626;    0.000;-18.39104
 315.12;    1.381;    4.092;    0.000;-2.71177
 315.28;   -3.498;    1.043;    0.000;-4.54042
 315.45;    0.361;   -1.951;    0.000; 2.31176
 315.62;   -9.155;    5.474;    0.000;-14.62934
 315.79;   -5.527;    0.263;    0.000;-5.79049
 315.95;   -5.098;    4.544;    0.000;-9.64172
 316.12;   -6.644;    9.616;    0.000;-16.26020
 316.29;   -5.449;    2.039;    0.000;-7.48844
 316.46;   -1.842;    9.414;    0.000;-11.25611
 316.62;   -5.486;   -1.446;    0.000;-4.04038
 316.79;   -7.987;    0.731;    0.000;-8.71847
 316.96;   -5.850;   -6.233;    0.000; 0.38275
 317.13;   -5.466;    5.845;    0.000;-11.31025
 317.29;    2.140;   -0.079;    0.000; 2.21870
 317.46;   -4.598;    6.317;    0.000;-10.91415
 317.63;   -4.972;   -7.200;    0.000; 2.22845
 317.80;   -6.087;    7.095;    0.000;-13.18128
 317.96;   -0.252;   -4.874;    0.000; 4.62114
 318.13;   -4.736;   -1.450;    0.000;-3.28613
 318.30;   -0.317;   -1.272;    0.000; 0.95473
 318.47;  -10.240;    9.521;    0.000;-19.76110
 318.63;    3.739;    4.232;    0.000;-0.49254
 318.80;   -7.188;    1.199;    0.000;-8.38741
 318.97;   -1.992;   -2.584;    0.000; 0.59238
 319.14;   -5.375;   -2.138;    0.000;-3.23679
 319.30;   -4.017;    0.699;    0.000;-4.71637
 319.47;   -3.919;   -1.802;    0.000;-2.11661
 319.64;   -2.028;   -4.143;    0.000; 2.11553
 319.81;   -7.981;    4.437;    0.000;-12.41829
 319.97;   -0.192;    0.114;    0.000;-0.30631
 320.14;   -4.135;    4.216;    0.000;-8.35084
 320.31;   -3.675;   -1.254;    0.000;-2.42117
 320.48;   -2.551;    3.062;    0.000;-5.61221
 320.64;    0.289;    5.642;    0.000;-5.35377
 320.81;   -4.274;    2.509;    0.000;-6.78263
 320.98;    4.493;    1.133;    0.000; 3.36022
 321.14;   -3.799;    1.737;    0.000;-5.53622
 321.31;    0.072;   -5.240;    0.000; 5.31220
 321.48;   -2.868;    3.283;    0.000;-6.15133
 321.65;   -1.951;   -0.028;    0.000;-1.92293
 321.81;   -4.145;    6.539;    0.000;-10.68386
 321.98;   -1.235;   -3.792;    0.000; 2.55713
 322.15;   -2.440;    1.173;    0.000;-3.61333
 322.32;    0.631;   -2.190;    0.000; 2.82136
 322.48;   -3.440;    0.842;    0.000;-4.28137
 322.65;   -0.263;    3.259;    0.000;-3.52179
 322.82;   -5.382;    9.947;    0.000;-15.32873
 322.99;   -9.129;   -9.263;    0.000; 0.13431
 323.15;   -0.950;   -2.239;    0.000; 1.28870
 323.32;   -6.576;    6.129;    0.000;-12.70450
 323.49;   -1.032;   -0.536;    0.000;-0.49631
 323.65;   -1.113;   -4.346;    0.000; 3.23253
 323.82;   -1.099;    1.192;    0.000;-2.29054
 323.99;   -5.512;    4.052;    0.000;-9.56357
 324.16;    2.449;    1.737;    0.000; 0.71191
 324.32;   -7.259;   -4.716;    0.000;-2.54379
 324.49;   -1.795;   -0.187;    0.000;-1.60739
 324.66;   -1.057;    3.911;    0.000;-4.96756
 324.82;   -1.434;    1.346;    0.000;-2.78001
 324.99;   -2.724;   -0.516;    0.000;-2.20727
 325.16;   -1.081;   -4.466;    0.000; 3.38544
 325.33;   -1.197;    1.677;    0.000;-2.87331
 325.49;   -0.357;   -1.432;    0.000; 1.07506
 325.66;   -0.289;   -0.375;    0.000; 0.08561
 325.83;   -4.077;    1.413;    0.000;-5.49082
 325.99;    6.104;   -4.878;    0.000;10.98185
 326.16;   -0.563;   -3.069;    0.000; 2.50579
 326.33;    3.511;   -3.158;    0.000; 6.66914
 326.50;    2.045;   -0.334;    0.000; 2.37896
 326.66;   -6.642;   -3.574;    0.000;-3.06730
 326.83;   -6.320;    8.868;    0.000;-15.18765
 327.00;   -1.445;   -8.153;    0.000; 6.70817
 327.16;    3.364;    9.325;    0.000;-5.96025
 327.33;   -8.546;   -1.152;    0.000;-7.39443
 327.50;   -7.629;    6.375;    0.000;-14.00439
 327.67;    6.293;    2.367;    0.000; 3.92566
 327.83;   -2.742;    1.880;    0.000;-4.62135
 328.00;    9.944;    1.200;    0.000; 8.74407
 328.17;   -2.523;    6.842;    0.000;-9.36564
 328.33;   -3.918;   -1.819;    0.000;-2.09840
 328.50;   -3.752;    3.429;    0.000;-7.18095
 328.67;   -5.400;   -5.834;    0.000; 0.43334
 328.84;   -2.844;    7.224;    0.000;-10.06818
 329.00;    0.805;   -0.124;    0.000; 0.92896
 329.17;   -5.068;    6.357;    0.000;-11.42518
 329.34;    1.686;    0.833;    0.000; 0.85293
 329.50;   -0.355;   -0.966;    0.000; 0.61079
 329.67;    3.509;   -2.798;    0.000; 6.30707
 329.84;   -2.875;    0.049;    0.000;-2.92346
 330.01;    6.726;   -2.343;    0.000; 9.06900
 330.17;   10.897;   -1.811;    0.000;12.70854
 330.34;   29.887;   -7.931;    0.000;37.81821
 330.51;   13.900;    0.775;    0.000;13.12477
 330.67;    7.359;    6.006;    0.000; 1.35354
 330.84;   -2.722;   -1.034;    0.000;-1.68853
 331.01;    0.278;   -3.498;    0.000; 3.77539
 331.17;   -3.786;    1.595;    0.000;-5.38025
 331.34;   -0.497;   -0.112;    0.000;-0.38514
 331.51;   -0.928;   -2.351;    0.000; 1.42240
 331.68;    2.768;   -3.012;    0.000; 5.78068
 331.84;   -0.779;    6.018;    0.000;-6.79701
 332.01;   -1.961;    1.631;    0.000;-3.59214
 332.18;    1.803;    3.175;    0.000;-1.37232
 332.34;   -4.270;    3.757;    0.000;-8.02725
 332.51;  -10.159;    0.938;    0.000;-11.09681
 332.68;   -1.236;   -6.260;    0.000; 5.02367
 332.84;   -7.312;    6.579;    0.000;-13.89115
 333.01;    3.157;    3.173;    0.000;-0.01584
 333.18;   -5.713;    5.590;    0.000;-11.30362
 333.34;    1.821;   -6.649;    0.000; 8.47077
 333.51;   -3.378;    2.124;    0.000;-5.50153
 333.68;   -5.819;    5.691;    0.000;-11.51027
 333.85;   -0.476;    2.784;    0.000;-3.26005
 334.01;    0.129;   -4.832;    0.000; 4.96028
 334.18;   -1.443;    0.806;    0.000;-2.24937
 334.35;   -0.519;    2.836;    0.000;-3.35498
 334.51;    5.748;    4.264;    0.000; 1.48389
 334.68;   -8.228;   -0.353;    0.000;-7.87558
 334.85;   -1.318;    7.573;    0.000;-8.89113
 335.01;    4.341;    1.155;    0.000; 3.18672
 335.18;   -3.878;   -2.866;    0.000;-1.01153
 335.35;   -1.938;    2.979;    0.000;-4.91721
 335.51;    3.873;   -6.149;    0.000;10.02193
 335.68;   -8.031;   -1.933;    0.000;-6.09809
 335.85;   -0.993;    6.358;    0.000;-7.35016
 336.01;   -4.067;   -3.274;    0.000;-0.79291
 336.18;   -8.819;    4.198;    0.000;-13.01681
 336.35;   -0.689;    0.027;    0.000;-0.71602
 336.51;   -9.897;    3.762;    0.000;-13.65886
 336.68;   -0.877;   -0.201;    0.000;-0.67637
 336.85;   -9.920;    9.594;    0.000;-19.51340
 337.02;   -4.594;   -4.903;    0.000; 0.30920
 337.18;    0.199;    2.199;    0.000;-1.99959
 337.35;   -4.279;    2.965;    0.000;-7.24399
 337.52;   -3.531;    3.142;    0.000;-6.67221
 337.68;   -5.349;    0.420;    0.000;-5.76831
 337.85;   -2.564;    2.680;    0.000;-5.24393
 338.02;   -2.173;   -6.081;    0.000; 3.90821
 338.18;   -9.659;    2.385;    0.000;-12.04399
 338.35;   -0.312;    2.887;    0.000;-3.19893
 338.52;   -2.084;    4.764;    0.000;-6.84838
 338.68;    6.314;   -5.728;    0.000;12.04165
 338.85;   -6.463;    4.935;    0.000;-11.39774
 339.02;    3.006;    2.701;    0.000; 0.30548
 339.18;   -3.225;    3.578;    0.000;-6.80287
 339.35;   -3.141;   -3.204;    0.000; 0.06231
 339.52;   -7.941;    2.700;    0.000;-10.64122
 339.68;   -1.465;   -0.251;    0.000;-1.21333
 339.85;   -5.756;    3.331;    0.000;-9.08620
 340.02;   -4.418;    5.323;    0.000;-9.74165
 340.18;   -1.193;   -1.898;    0.000; 0.70508
 340.35;   -3.340;    3.990;    0.000;-7.33091
 340.52;   -8.197;   -6.167;    0.000;-2.03049
 340.68;    0.738;   -2.580;    0.000; 3.31742
 340.85;   -4.115;    2.347;    0.000;-6.46215
 341.02;    7.626;   -6.708;    0.000;14.33405
 341.18;   -0.074;    0.008;    0.000;-0.08170
 341.35;    2.067;   -1.198;    0.000; 3.26508
 341.52;   -3.489;    2.159;    0.000;-5.64811
 341.68;   -6.981;   -6.482;    0.000;-0.49868
 341.85;   -2.356;    1.861;    0.000;-4.21743
 342.02;    1.770;   -8.916;    0.000;10.68660
 342.18;   -2.630;    4.416;    0.000;-7.04666
 342.35;   -1.961;    2.069;    0.000;-4.03011
 342.52;   -3.756;    5.034;    0.000;-8.78985
 342.68;   -4.495;   -7.533;    0.000; 3.03837
 342.85;   -5.396;    5.469;    0.000;-10.86521
 343.02;    1.148;   -1.627;    0.000; 2.77500
 343.18;    3.353;    4.101;    0.000;-0.74827
 343.35;   -0.026;   -3.355;    0.000; 3.32832
 343.51;  -14.864;   -1.183;    0.000;-13.68131
 343.68;   -3.948;    7.732;    0.000;-11.67990
 343.85;   -0.999;    4.050;    0.000;-5.04954
 344.01;    2.242;   -5.384;    0.000; 7.62645
 344.18;   -5.770;    3.084;    0.000;-8.85340
 344.35;   -4.691;   -0.006;    0.000;-4.68527
 344.51;   -0.837;    3.806;    0.000;-4.64259
 344.68;    1.561;    3.171;    0.000;-1.61047
 344.85;   -0.479;    3.825;    0.000;-4.30399
 345.01;    0.881;   -1.352;    0.000; 2.23248
 345.18;    0.256;    8.748;    0.000;-8.49210
 345.35;    3.907;    1.379;    0.000; 2.52730
 345.51;   -1.700;   -6.307;    0.000; 4.60609
 345.68;   -9.318;    3.008;    0.000;-12.32597
 345.85;   -8.440;   -4.520;    0.000;-3.92038
 346.01;   -3.242;    5.922;    0.000;-9.16408
 346.18;   -2.799;    2.188;    0.000;-4.98648
 346.35;   -5.564;   -0.623;    0.000;-4.94100
 346.51;   -2.450;    3.748;    0.000;-6.19816
 346.68;   -3.827;   -3.501;    0.000;-0.32637
 346.84;   -0.065;    1.920;    0.000;-1.98477
 347.01;   -7.699;   -3.771;    0.000;-3.92792
 347.18;   -0.667;    2.409;    0.000;-3.07637
 347.34;  -10.525;   -0.707;    0.000;-9.81862
 347.51;    4.852;    5.654;    0.000;-0.80172
 347.68;   -0.459;   -1.145;    0.000; 0.68561
 347.84;   -4.373;   -0.772;    0.000;-3.60107
 348.01;   -6.708;   -9.200;    0.000; 2.49129
 348.18;   -3.329;    7.517;    0.000;-10.84589
 348.34;   -4.793;    0.953;    0.000;-5.74538
 348.51;   -1.191;    4.789;    0.000;-5.97959
 348.67;    0.524;   -3.334;    0.000; 3.85773
 348.84;   -4.160;    6.169;    0.000;-10.32915
 349.01;   -2.800;   -5.774;    0.000; 2.97334
 349.17;   -4.376;   -0.069;    0.000;-4.30620
 349.34;   -1.408;   -3.683;    0.000; 2.27482
 349.51;   -5.868;   -1.145;    0.000;-4.72323
 349.67;   -0.650;   -1.557;    0.000; 0.90680
 349.84;  -11.112;   -4.207;    0.000;-6.90468
 350.01;   -5.424;   -1.608;    0.000;-3.81615
 350.17;   -8.636;    1.550;    0.000;-10.18600
 350.34;   -1.684;    2.123;    0.000;-3.80675
 350.50;   -9.524;    3.351;    0.000;-12.87432
 350.67;   -2.987;    0.461;    0.000;-3.44847
 350.84;   -2.129;    2.468;    0.000;-4.59629
 351.00;   -0.444;   -2.282;    0.000; 1.83797
 351.17;   -0.996;    1.105;    0.000;-2.10168
 351.34;   -6.005;    0.753;    0.000;-6.75862
 351.50;   -1.459;    2.886;    0.000;-4.34582
 351.67;   -2.159;    5.794;    0.000;-7.95379
 351.83;   -5.332;   -1.194;    0.000;-4.13800
 352.00;   -6.302;    1.558;    0.000;-7.85932
 352.17;   -4.310;    4.792;    0.000;-9.10241
 352.33;   -7.931;  -11.943;    0.000; 4.01244
 352.50;   -4.615;   10.392;    0.000;-15.00719
 352.67;    0.513;    4.731;    0.000;-4.21807
 352.83;   -9.088;    6.843;    0.000;-15.93100
 353.00;    2.890;    2.789;    0.000; 0.10112
 353.16;    0.990;    3.201;    0.000;-2.21078
 353.33;    1.997;    1.087;    0.000; 0.91037
 353.50;    0.328;    1.422;    0.000;-1.09428
 353.66;   -3.800;    0.914;    0.000;-4.71340
 353.83;   -6.318;    1.985;    0.000;-8.30323
 354.00;    0.203;    4.492;    0.000;-4.28906
 354.16;   -5.847;    7.203;    0.000;-13.05009
 354.33;   -2.821;   -4.304;    0.000; 1.48354
 354.49;  -10.367;   -3.174;    0.000;-7.19278
 354.66;   -5.986;    7.125;    0.000;-13.11025
 354.83;   -3.710;    3.356;    0.000;-7.06510
 354.99;   -3.095;   -1.217;    0.000;-1.87739
 355.16;   -2.984;    2.731;    0.000;-5.71452
 355.32;   -2.099;    4.432;    0.000;-6.53073
 355.49;   -1.965;    8.483;    0.000;-10.44739
 355.66;    2.231;   -6.811;    0.000; 9.04228
 355.82;   -9.838;    4.496;    0.000;-14.33362
 355.99;  -13.987;   -4.586;    0.000;-9.40069
 356.15;   -4.865;    1.481;    0.000;-6.34639
 356.32;   -5.066;    6.223;    0.000;-11.28926
 356.49;   -7.992;    6.907;    0.000;-14.89880
 356.65;   -3.887;   -4.389;    0.000; 0.50193
 356.82;   -0.006;    9.364;    0.000;-9.36992
 356.98;   -0.714;   -4.553;    0.000; 3.83940
 357.15;   -2.316;   -1.321;    0.000;-0.99521
 357.32;   -3.766;    0.070;    0.000;-3.83600
 357.48;   -0.922;   -0.095;    0.000;-0.82710
 357.65;   -3.794;   -0.985;    0.000;-2.80877
 357.82;   -5.825;    3.808;    0.000;-9.63294
 357.98;    1.583;    0.223;    0.000; 1.35991
 358.15;   -3.394;    6.557;    0.000;-9.95151
 358.31;   -2.945;    1.840;    0.000;-4.78477
 358.48;   -9.884;   -1.352;    0.000;-8.53170
 358.65;   -4.274;    0.452;    0.000;-4.72635
 358.81;   -6.189;    3.867;    0.000;-10.05589
 358.98;   -7.518;   -6.126;    0.000;-1.39153
 359.14;  -11.666;    2.818;    0.000;-14.48377
 359.31;   -5.986;   -6.219;    0.000; 0.23277
 359.48;   -7.100;    0.287;    0.000;-7.38692
 359.64;   -5.674;    3.671;    0.000;-9.34452
 359.81;   -0.679;   -0.045;    0.000;-0.63399
 359.97;    2.769;   -4.541;    0.000; 7.31041
 360.14;   -0.457;   -3.942;    0.000; 3.48415
 360.30;   -1.503;   -3.867;    0.000; 2.36429
 360.47;   -6.993;   -2.748;    0.000;-4.24532
 360.64;   -4.358;   -2.112;    0.000;-2.24668
 360.80;   -0.648;   -0.492;    0.000;-0.15545
 360.97;    0.819;   -2.056;    0.000; 2.87433
 361.13;   -2.241;    1.220;    0.000;-3.46018
 361.30;   -4.488;   -2.047;    0.000;-2.44113
 361.47;   -2.147;    3.198;    0.000;-5.34441
 361.63;   -1.062;   -2.456;    0.000; 1.39350
 361.80;   -4.664;   10.689;    0.000;-15.35250
 361.96;   -3.604;    2.176;    0.000;-5.78001
 362.13;   -5.399;   -4.128;    0.000;-1.27054
 362.30;   -5.474;    3.253;    0.000;-8.72655
 362.46;   -3.286;    6.272;    0.000;-9.55802
 362.63;   -2.387;   -1.355;    0.000;-1.03232
 362.79;   -6.534;   -2.326;    0.000;-4.20798
 362.96;    1.309;    1.834;    0.000;-0.52424
 363.12;   -6.834;    3.161;    0.000;-9.99432
 363.29;    3.350;   -0.447;    0.000; 3.79720
 363.46;   -9.865;   -2.453;    0.000;-7.41234
 363.62;   -7.623;    3.489;    0.000;-11.11270
 363.79;   -4.468;    3.348;    0.000;-7.81545
 363.95;   -4.478;    2.404;    0.000;-6.88192
 364.12;   -3.617;    5.493;    0.000;-9.11029
 364.29;   -5.381;   -8.945;    0.000; 3.56394
 364.45;   -1.940;    4.262;    0.000;-6.20241
 364.62;   -2.157;    7.294;    0.000;-9.45069
 364.78;    1.964;    2.910;    0.000;-0.94600
 364.95;   -3.124;   -1.113;    0.000;-2.01100
 365.11;   -5.043;    6.052;    0.000;-11.09499
 365.28;   -2.371;    6.760;    0.000;-9.13142
 365.45;    0.998;    4.279;    0.000;-3.28082
 365.61;    0.304;    0.018;    0.000; 0.28610
 365.78;  -10.554;    5.809;    0.000;-16.36353
 365.94;   -6.703;    7.064;    0.000;-13.76734
 366.11;   -3.689;    1.921;    0.000;-5.60994
 366.27;  -12.270;   -2.009;    0.000;-10.26098
 366.44;    3.520;    0.499;    0.000; 3.02105
 366.61;   -5.365;   -0.758;    0.000;-4.60699
 366.77;    1.764;    6.300;    0.000;-4.53560
 366.94;   -7.373;   -1.678;    0.000;-5.69512
 367.10;   -6.082;   -1.645;    0.000;-4.43638
 367.27;   -1.098;   -0.745;    0.000;-0.35316
 367.43;   -1.731;    2.847;    0.000;-4.57809
 367.60;   -8.363;    5.046;    0.000;-13.40904
 367.77;   -1.093;    0.061;    0.000;-1.15472
 367.93;    1.869;   -1.352;    0.000; 3.22028
 368.10;   -5.139;    2.638;    0.000;-7.77752
 368.26;    1.956;   -4.196;    0.000; 6.15182
 368.43;    6.547;    0.564;    0.000; 5.98286
 368.59;   -5.844;   -2.144;    0.000;-3.70007
 368.76;   -2.597;    2.736;    0.000;-5.33291
 368.92;   -7.627;    0.538;    0.000;-8.16514
 369.09;   -6.500;    5.517;    0.000;-12.01673
 369.26;    3.586;   -1.727;    0.000; 5.31325
 369.42;    1.758;   -1.432;    0.000; 3.18957
 369.59;   -2.482;    2.820;    0.000;-5.30206
 369.75;   -1.399;    9.215;    0.000;-10.61439
 369.92;   -1.798;   -7.278;    0.000; 5.48050
 370.08;   -6.143;    4.758;    0.000;-10.90107
 370.25;   -8.922;    2.764;    0.000;-11.68650
 370.42;   -6.645;    2.289;    0.000;-8.93333
 370.58;   -4.139;    0.107;    0.000;-4.24602
 370.75;    2.741;    2.345;    0.000; 0.39561
 370.91;   -6.253;   -2.528;    0.000;-3.72512
 371.08;   -2.201;    4.698;    0.000;-6.89900
 371.24;   -9.677;   -1.127;    0.000;-8.55009
 371.41;   -4.492;    1.866;    0.000;-6.35820
 371.57;    0.417;    0.760;    0.000;-0.34329
 371.74;   -8.191;   -0.876;    0.000;-7.31534
 371.90;    3.673;    1.923;    0.000; 1.74951
 372.07;    3.409;    3.740;    0.000;-0.33102
 372.24;    2.731;   -0.900;    0.000; 3.63046
 372.40;    5.102;    0.033;    0.000; 5.06907
 372.57;   -1.054;   -6.766;    0.000; 5.71162
 372.73;    1.649;    7.457;    0.000;-5.80796
 372.90;    2.921;    0.485;    0.000; 2.43601
 373.06;    0.936;    4.919;    0.000;-3.98373
 373.23;   -9.151;    1.324;    0.000;-10.47527
 373.39;    8.038;    1.258;    0.000; 6.77977
 373.56;    4.150;   -0.610;    0.000; 4.75962
 373.73;   -4.838;    9.177;    0.000;-14.01525
 373.89;   -4.275;   -4.285;    0.000; 0.00936
 374.06;    0.383;    2.030;    0.000;-1.64664
 374.22;   -7.699;   -2.396;    0.000;-5.30256
 374.39;   -5.817;   -0.055;    0.000;-5.76232
 374.55;   -4.538;    1.156;    0.000;-5.69362
 374.72;   -0.298;    5.917;    0.000;-6.21525
 374.88;   -2.636;   -3.107;    0.000; 0.47035
 375.05;   -3.557;    3.164;    0.000;-6.72069
 375.21;   -1.033;    0.807;    0.000;-1.83956
 375.38;   -6.872;   -5.140;    0.000;-1.73245
 375.54;   -3.275;   -1.749;    0.000;-1.52536
 375.71;   -9.284;   -2.197;    0.000;-7.08675
 375.88;   -2.021;   -0.628;    0.000;-1.39221
 376.04;   -3.928;    2.985;    0.000;-6.91303
 376.21;   -8.503;   -4.644;    0.000;-3.85813
 376.37;   -0.227;   11.136;    0.000;-11.36382
 376.54;   -2.371;    5.359;    0.000;-7.72992
 376.70;   -7.021;    4.116;    0.000;-11.13626
 376.87;   -2.542;   -4.256;    0.000; 1.71389
 377.03;   -4.703;   -1.898;    0.000;-2.80512
 377.20;   -1.972;    6.355;    0.000;-8.32690
 377.36;   -4.281;    6.720;    0.000;-11.00018
 377.53;   -3.225;    2.812;    0.000;-6.03719
 377.69;    5.469;    3.238;    0.000; 2.23081
 377.86;    3.095;    3.285;    0.000;-0.19064
 378.02;   -1.004;   -0.905;    0.000;-0.09857
 378.19;   -6.273;   -0.307;    0.000;-5.96551
 378.35;   -0.724;    2.503;    0.000;-3.22778
 378.52;   -1.895;   -1.410;    0.000;-0.48477
 378.69;    1.325;   10.263;    0.000;-8.93758
 378.85;   -5.982;   -2.818;    0.000;-3.16448
 379.02;   -3.217;   -2.246;    0.000;-0.97089
 379.18;    1.136;   -6.046;    0.000; 7.18182
 379.35;   -1.646;    4.920;    0.000;-6.56580
 379.51;   -1.147;    3.195;    0.000;-4.34212
 379.68;    0.728;   -1.682;    0.000; 2.40957
 379.84;   -2.909;   -4.904;    0.000; 1.99541
 380.01;    1.215;    2.370;    0.000;-1.15516
 380.17;   -1.488;    3.163;    0.000;-4.65093
 380.34;   -0.698;    2.285;    0.000;-2.98296
 380.50;   -8.454;    5.847;    0.000;-14.30100
 380.67;   -4.809;   -1.369;    0.000;-3.43994
 380.83;   -1.611;   -5.220;    0.000; 3.60858
 381.00;   -5.015;    1.639;    0.000;-6.65437
 381.16;   -0.210;   -2.583;    0.000; 2.37314
 381.33;   -2.508;    4.188;    0.000;-6.69668
 381.49;    1.345;   -2.577;    0.000; 3.92158
 381.66;   -1.344;   -0.701;    0.000;-0.64353
 381.82;   -4.919;   -0.702;    0.000;-4.21701
 381.99;   -1.401;    0.724;    0.000;-2.12443
 382.15;   -3.439;    0.284;    0.000;-3.72256
 382.32;   -0.610;    2.233;    0.000;-2.84280
 382.48;   -9.329;    1.384;    0.000;-10.71276
 382.65;    0.430;    4.603;    0.000;-4.17280
 382.81;   -4.808;    9.059;    0.000;-13.86741
 382.98;   -2.355;    5.198;    0.000;-7.55294
 383.14;    2.085;   -2.839;    0.000; 4.92464
 383.31;    0.062;   -3.088;    0.000; 3.15010
 383.47;   -3.356;   -0.649;    0.000;-2.70723
 383.64;   -1.253;    6.838;    0.000;-8.09087
 383.80;    3.426;    2.583;    0.000; 0.84325
 383.97;   -6.610;    1.489;    0.000;-8.09875
 384.13;   -4.893;    9.157;    0.000;-14.04996
 384.30;   -5.585;    1.988;    0.000;-7.57274
 384.46;   -4.966;   -5.636;    0.000; 0.67015
 384.63;   -8.586;   -3.817;    0.000;-4.76965
 384.79;   -6.333;   -3.254;    0.000;-3.07813
 384.96;   -4.211;    0.374;    0.000;-4.58547
 385.12;   -0.114;   -5.259;    0.000; 5.14424
 385.29;  -10.733;   -5.729;    0.000;-5.00388
 385.45;   -2.371;    1.244;    0.000;-3.61547
 385.62;   -1.289;   -0.279;    0.000;-1.01014
 385.78;   -1.055;   -2.465;    0.000; 1.40948
 385.95;    1.273;   -2.059;    0.000; 3.33153
 386.11;   -1.932;    7.104;    0.000;-9.03611
 386.28;  -11.459;   -2.097;    0.000;-9.36217
 386.44;  -10.029;   -2.753;    0.000;-7.27622
 386.61;   -1.477;   -1.960;    0.000; 0.48297
 386.77;    2.207;    5.764;    0.000;-3.55734
 386.94;   -4.775;   -1.373;    0.000;-3.40163
 387.10;   -3.005;    5.774;    0.000;-8.77882
 387.27;   -6.474;    0.743;    0.000;-7.21778
 387.43;   -5.310;    3.836;    0.000;-9.14666
 387.60;   -5.853;   -3.619;    0.000;-2.23388
 387.76;   -8.089;   -4.664;    0.000;-3.42498
 387.93;   -6.319;    4.912;    0.000;-11.23157
 388.09;    6.938;    0.754;    0.000; 6.18350
 388.26;   -4.013;    0.596;    0.000;-4.60937
 388.42;    2.314;   -1.422;    0.000; 3.73590
 388.59;    0.654;    7.890;    0.000;-7.23560
 388.75;   -2.826;   -1.733;    0.000;-1.09371
 388.92;   -6.010;    2.452;    0.000;-8.46261
 389.08;    6.337;    4.581;    0.000; 1.75619
 389.25;   -5.449;    2.833;    0.000;-8.28204
 389.41;   -2.286;    4.422;    0.000;-6.70815
 389.58;   -5.283;   -5.314;    0.000; 0.03063
 389.74;    1.038;    1.083;    0.000;-0.04468
 389.91;   -0.990;    0.702;    0.000;-1.69261
 390.07;   -0.059;   -3.415;    0.000; 3.35561
 390.24;  -10.539;   -1.218;    0.000;-9.32034
 390.40;   -3.886;    5.923;    0.000;-9.80926
 390.57;   -5.982;    2.344;    0.000;-8.32650
 390.73;   -7.595;   -4.204;    0.000;-3.39084
 390.90;   -0.773;   -1.421;    0.000; 0.64834
 391.06;   -1.590;   -4.564;    0.000; 2.97438
 391.23;   -3.295;    1.317;    0.000;-4.61144
 391.39;   -2.459;   -0.488;    0.000;-1.97054
 391.55;   -1.855;   -1.072;    0.000;-0.78326
 391.72;   -1.238;   -0.508;    0.000;-0.72970
 391.88;   -6.956;   -6.077;    0.000;-0.87926
 392.05;   -7.191;   -6.998;    0.000;-0.19221
 392.21;   -7.015;    9.180;    0.000;-16.19516
 392.38;   -5.815;   -3.664;    0.000;-2.15084
 392.54;   -6.101;   -1.981;    0.000;-4.11959
 392.71;   -1.768;   -3.997;    0.000; 2.22867
 392.87;   -1.559;   -2.157;    0.000; 0.59803
 393.04;   -1.143;   -2.414;    0.000; 1.27063
 393.20;   -2.688;   -2.143;    0.000;-0.54558
 393.37;    0.325;   -0.217;    0.000; 0.54261
 393.53;   -0.103;    3.677;    0.000;-3.77976
 393.70;   -2.062;   -2.212;    0.000; 0.15068
 393.86;   -6.152;    3.095;    0.000;-9.24657
 394.03;    0.965;    1.764;    0.000;-0.79901
 394.19;   -6.359;   -2.574;    0.000;-3.78479
 394.35;   -4.411;   -4.101;    0.000;-0.30992
 394.52;   -6.223;    4.664;    0.000;-10.88714
 394.68;   -1.124;   -7.144;    0.000; 6.01980
 394.85;   -1.123;    1.899;    0.000;-3.02146
 395.01;    1.177;    4.353;    0.000;-3.17591
 395.18;   -6.938;    1.494;    0.000;-8.43172
 395.34;   -3.967;    1.608;    0.000;-5.57494
 395.51;   -4.458;    0.655;    0.000;-5.11316
 395.67;   -6.313;   -2.699;    0.000;-3.61369
 395.84;   -6.638;   -6.169;    0.000;-0.46910
 396.00;    2.246;   -1.825;    0.000; 4.07019
 396.17;    1.042;   -3.594;    0.000; 4.63625
 396.33;   -0.595;   -2.613;    0.000; 2.01733
 396.49;    1.051;    3.125;    0.000;-2.07406
 396.66;   -6.089;    3.805;    0.000;-9.89399
 396.82;    8.033;   -1.712;    0.000; 9.74559
 396.99;    4.951;    7.664;    0.000;-2.71276
 397.15;   -7.813;    3.920;    0.000;-11.73218
 397.32;   -3.072;   -3.864;    0.000; 0.79270
 397.48;  -11.256;    2.003;    0.000;-13.25926
 397.65;   -1.955;   -2.643;    0.000; 0.68733
 397.81;  -10.018;    5.082;    0.000;-15.09950
 397.97;   -4.513;  -13.585;    0.000; 9.07226
 398.14;   -5.484;   -1.107;    0.000;-4.37746
 398.30;   -4.284;    3.858;    0.000;-8.14223
 398.47;   -5.019;    2.646;    0.000;-7.66426
 398.63;    3.181;   -4.781;    0.000; 7.96156
 398.80;    1.930;    0.487;    0.000; 1.44295
 398.96;    6.868;   -0.532;    0.000; 7.39944
 399.13;   -0.579;   -2.157;    0.000; 1.57783
 399.29;   -5.103;    1.774;    0.000;-6.87714
 399.46;   -4.467;    5.730;    0.000;-10.19684
 399.62;    2.714;    2.568;    0.000; 0.14610
 399.78;   -7.326;    4.665;    0.000;-11.99045
 399.95;   -3.836;    0.192;    0.000;-4.02783
 400.11;  -12.963;   -1.955;    0.000;-11.00754
 400.28;   -7.794;   -0.014;    0.000;-7.78040
 400.44;    1.126;   -0.924;    0.000; 2.04999
 400.61;   -0.402;   -3.425;    0.000; 3.02290
 400.77;   -3.723;   11.729;    0.000;-15.45166
 400.93;   -2.150;   -3.596;    0.000; 1.44537
 401.10;   -1.216;    3.002;    0.000;-4.21802
 401.26;   -3.234;   -3.097;    0.000;-0.13655
 401.43;   -6.206;    3.435;    0.000;-9.64148
 401.59;    0.511;   -4.663;    0.000; 5.17378
 401.76;   -5.002;    1.933;    0.000;-6.93468
 401.92;  -12.013;   -6.024;    0.000;-5.98813
 402.09;   -5.874;    4.222;    0.000;-10.09615
 402.25;   -1.209;   -3.824;    0.000; 2.61502
 402.41;    0.860;   -1.569;    0.000; 2.42902
 402.58;    2.012;   -4.068;    0.000; 6.08050
 402.74;   -5.536;    3.009;    0.000;-8.54521
 402.91;   -1.621;   -5.342;    0.000; 3.72028
 403.07;   -3.814;    5.532;    0.000;-9.34635
 403.24;   -4.318;   -1.798;    0.000;-2.51970
 403.40;   -1.320;   -0.227;    0.000;-1.09280
 403.56;    3.719;   -1.438;    0.000; 5.15779
 403.73;   -5.505;    8.680;    0.000;-14.18516
 403.89;   -4.727;    3.050;    0.000;-7.77677
 404.06;   -9.990;    3.780;    0.000;-13.76935
 404.22;   -1.371;   -1.603;    0.000; 0.23191
 404.39;    3.964;    0.608;    0.000; 3.35642
 404.55;   -0.047;    2.299;    0.000;-2.34553
 404.71;    6.079;    3.636;    0.000; 2.44231
 404.88;   -2.736;    1.435;    0.000;-4.17148
 405.04;    0.919;    5.538;    0.000;-4.61868
 405.21;   -3.703;    1.618;    0.000;-5.32139
 405.37;    5.148;   -0.645;    0.000; 5.79290
 405.53;    6.073;    6.248;    0.000;-0.17514
 405.70;   -4.490;    1.096;    0.000;-5.58542
 405.86;   -1.289;   -3.776;    0.000; 2.48724
 406.03;   -4.853;   -3.839;    0.000;-1.01388
 406.19;    2.683;   -8.064;    0.000;10.74689
 406.36;    0.323;    0.460;    0.000;-0.13787
 406.52;   -8.629;   -4.896;    0.000;-3.73256
 406.68;   -3.896;   -2.917;    0.000;-0.97926
 406.85;    1.271;    3.997;    0.000;-2.72602
 407.01;   -1.956;    3.183;    0.000;-5.13822
 407.18;   -0.344;    5.115;    0.000;-5.45981
 407.34;   -1.097;   -2.159;    0.000; 1.06173
 407.50;   -1.697;    1.552;    0.000;-3.24906
 407.67;   -2.694;   -1.336;    0.000;-1.35818
 407.83;   -7.887;   -8.724;    0.000; 0.83709
 408.00;    4.274;    5.994;    0.000;-1.72005
 408.16;  -10.129;    6.376;    0.000;-16.50582
 408.33;    1.525;    0.603;    0.000; 0.92261
 408.49;   -3.788;    0.147;    0.000;-3.93538
 408.65;  -11.065;    0.560;    0.000;-11.62477
 408.82;    0.376;   -3.149;    0.000; 3.52535
 408.98;   -5.957;   -0.575;    0.000;-5.38252
 409.15;   -4.695;   -5.844;    0.000; 1.14876
 409.31;    0.034;    4.383;    0.000;-4.34926
 409.47;   -4.719;   -5.838;    0.000; 1.11934
 409.64;   -5.969;    2.463;    0.000;-8.43217
 409.80;   -9.847;    7.405;    0.000;-17.25252
 409.97;   -8.482;    1.985;    0.000;-10.46690
 410.13;   -3.651;    3.384;    0.000;-7.03443
 410.29;   -8.310;   -1.546;    0.000;-6.76340
 410.46;   -5.258;    1.192;    0.000;-6.44950
 410.62;   -8.310;    7.077;    0.000;-15.38692
 410.79;   -8.597;   -7.186;    0.000;-1.41089
 410.95;    3.529;    2.191;    0.000; 1.33799
 411.11;   -2.656;    0.317;    0.000;-2.97351
 411.28;   -7.996;    0.191;    0.000;-8.18743
 411.44;   -2.755;   -2.644;    0.000;-0.11084
 411.61;   -4.580;   -2.300;    0.000;-2.27935
 411.77;   -3.581;   -4.547;    0.000; 0.96616
 411.93;   -2.407;    7.014;    0.000;-9.42089
 412.10;   -4.343;   -2.262;    0.000;-2.08016
 412.26;    1.591;   -2.450;    0.000; 4.04046
 412.43;    3.107;   -3.795;    0.000; 6.90226
 412.59;    0.541;   -1.144;    0.000; 1.68451
 412.75;    0.770;   -2.388;    0.000; 3.15759
 412.92;  -11.019;    2.766;    0.000;-13.78498
 413.08;    4.932;   -6.341;    0.000;11.27240
 413.24;   -5.207;    9.104;    0.000;-14.31056
 413.41;   -2.810;    0.923;    0.000;-3.73320
 413.57;    2.345;    5.510;    0.000;-3.16477
 413.74;    0.387;   -3.068;    0.000; 3.45436
 413.90;    1.305;   -4.150;    0.000; 5.45504
 414.06;   -7.198;   -1.361;    0.000;-5.83721
 414.23;   -3.866;   -1.124;    0.000;-2.74155
 414.39;   -0.183;    1.805;    0.000;-1.98897
 414.56;   -0.665;    4.705;    0.000;-5.37064
 414.72;    2.628;    3.392;    0.000;-0.76428
 414.88;   -3.818;   -0.675;    0.000;-3.14296
 415.05;    3.403;   -6.274;    0.000; 9.67709
 415.21;   -5.875;    1.133;    0.000;-7.00842
 415.37;   -2.978;   -1.571;    0.000;-1.40741
 415.54;   -4.998;    4.878;    0.000;-9.87545
 415.70;    8.449;   -0.403;    0.000; 8.85211
 415.87;   25.437;   -2.737;    0.000;28.17409
 416.03;    7.978;    6.097;    0.000; 1.88127
 416.19;   -4.887;   -5.546;    0.000; 0.65931
 416.36;   -0.514;   -0.242;    0.000;-0.27170
 416.52;   -1.995;   -3.634;    0.000; 1.63916
 416.69;    4.471;    0.499;    0.000; 3.97196
 416.85;   -2.832;    6.299;    0.000;-9.13082
 417.01;   -3.858;    1.459;    0.000;-5.31688
 417.18;   -3.169;    5.399;    0.000;-8.56772
 417.34;   -0.999;    1.278;    0.000;-2.27661
 417.50;   -7.653;   -5.133;    0.000;-2.51963
 417.67;   -0.234;    2.986;    0.000;-3.22001
 417.83;   -2.484;    3.556;    0.000;-6.04007
 418.00;    2.031;    4.515;    0.000;-2.48439
 418.16;    3.230;   -4.647;    0.000; 7.87720
 418.32;   -1.801;   -0.706;    0.000;-1.09443
 418.49;   -1.450;    3.806;    0.000;-5.25666
 418.65;   -7.474;   -1.235;    0.000;-6.23877
 418.81;   -6.196;    2.925;    0.000;-9.12148
 418.98;    8.020;   -0.555;    0.000; 8.57477
 419.14;   -3.889;   -0.057;    0.000;-3.83217
 419.30;    2.613;    0.927;    0.000; 1.68566
 419.47;    1.340;    0.457;    0.000; 0.88288
 419.63;    1.094;    1.064;    0.000; 0.02982
 419.80;   16.059;   -0.933;    0.000;16.99211
 419.96;   15.833;    4.342;    0.000;11.49114
 420.12;   15.041;    2.078;    0.000;12.96319
 420.29;    1.799;   -2.632;    0.000; 4.43028
 420.45;    4.579;   -2.417;    0.000; 6.99636
 420.61;   -1.050;   -4.132;    0.000; 3.08235
 420.78;   -2.176;    2.829;    0.000;-5.00521
 420.94;    2.310;    4.818;    0.000;-2.50745
 421.10;    3.793;    4.069;    0.000;-0.27604
 421.27;   -0.381;   -5.975;    0.000; 5.59394
 421.43;   -2.567;    6.511;    0.000;-9.07807
 421.59;    5.936;   -4.587;    0.000;10.52332
 421.76;   -2.564;    6.294;    0.000;-8.85798
 421.92;   -2.220;   -2.944;    0.000; 0.72438
 422.09;   -6.456;   -6.248;    0.000;-0.20763
 422.25;    0.432;   -0.261;    0.000; 0.69259
 422.41;   -9.604;    3.214;    0.000;-12.81818
 422.58;   -4.712;   -2.338;    0.000;-2.37428
 422.74;   -7.462;    6.406;    0.000;-13.86730
 422.90;   -7.282;  -12.613;    0.000; 5.33107
 423.07;   -5.741;    0.679;    0.000;-6.41999
 423.23;    0.181;    0.392;    0.000;-0.21157
 423.39;  -10.184;    4.622;    0.000;-14.80595
 423.56;    4.011;   -0.054;    0.000; 4.06541
 423.72;   -2.780;    7.340;    0.000;-10.11935
 423.88;   -9.958;   -5.312;    0.000;-4.64578
 424.05;   -4.414;    1.207;    0.000;-5.62080
 424.21;   -1.159;   -5.147;    0.000; 3.98803
 424.37;    1.299;    9.798;    0.000;-8.49868
 424.54;   -1.114;    2.502;    0.000;-3.61525
 424.70;   -8.418;    5.382;    0.000;-13.79983
 424.86;   -2.473;    2.262;    0.000;-4.73564
 425.03;    0.932;    2.224;    0.000;-1.29192
 425.19;    2.640;   -5.122;    0.000; 7.76255
 425.35;   -4.497;    0.776;    0.000;-5.27291
 425.52;   -3.902;    4.729;    0.000;-8.63075
 425.68;   -7.336;   12.092;    0.000;-19.42763
 425.84;   -2.430;   -8.531;    0.000; 6.10112
 426.01;    2.917;    5.086;    0.000;-2.16937
 426.17;   -2.271;   -0.705;    0.000;-1.56606
 426.33;   -6.161;    3.870;    0.000;-10.03102
 426.50;    2.928;    2.535;    0.000; 0.39310
 426.66;    2.222;    1.167;    0.000; 1.05585
 426.83;   -4.246;   -2.617;    0.000;-1.62875
 426.99;    5.964;    9.417;    0.000;-3.45318
 427.15;    4.349;   -1.674;    0.000; 6.02374
 427.32;   -0.469;    3.077;    0.000;-3.54622
 427.48;   -1.608;    1.224;    0.000;-2.83153
 427.64;   -2.842;    0.505;    0.000;-3.34690
 427.80;   -4.341;    0.659;    0.000;-5.00031
 427.97;    5.236;    8.608;    0.000;-3.37210
 428.13;   -4.029;    4.445;    0.000;-8.47328
 428.29;   -0.483;    0.821;    0.000;-1.30388
 428.46;    0.066;   -5.554;    0.000; 5.61980
 428.62;   -2.379;    7.458;    0.000;-9.83661
 428.78;   -5.056;   -5.670;    0.000; 0.61407
 428.95;   -4.365;   10.480;    0.000;-14.84496
 429.11;    6.849;    1.006;    0.000; 5.84374
 429.27;    3.351;    3.408;    0.000;-0.05681
 429.44;   -4.139;   -6.938;    0.000; 2.79894
 429.60;   -7.404;    2.325;    0.000;-9.72877
 429.76;   -2.121;    1.246;    0.000;-3.36749
 429.93;   -0.816;   -3.564;    0.000; 2.74792
 430.09;    2.741;   -4.759;    0.000; 7.50077
 430.25;   -6.922;    2.598;    0.000;-9.52036
 430.42;    0.881;   -0.970;    0.000; 1.85136
 430.58;   -0.506;   -4.465;    0.000; 3.95832
 430.74;   -8.974;    8.210;    0.000;-17.18425
 430.91;   -8.126;    9.487;    0.000;-17.61247
 431.07;    2.547;   -0.331;    0.000; 2.87801
 431.23;   -7.251;   -0.914;    0.000;-6.33626
 431.40;   -0.907;    4.229;    0.000;-5.13637
 431.56;    1.816;    0.015;    0.000; 1.80019
 431.72;    1.793;   -2.560;    0.000; 4.35323
 431.89;   -6.075;   -4.545;    0.000;-1.52941
 432.05;   -4.155;   -5.804;    0.000; 1.64896
 432.21;   -0.074;    8.222;    0.000;-8.29635
 432.37;   -3.182;   -3.497;    0.000; 0.31532
 432.54;   -3.978;   -0.956;    0.000;-3.02153
 432.70;   -1.886;   -4.818;    0.000; 2.93205
 432.86;   -4.754;    3.709;    0.000;-8.46302
 433.03;    3.787;    5.636;    0.000;-1.84917
 433.19;   -2.627;    3.918;    0.000;-6.54461
 433.35;    1.175;    1.804;    0.000;-0.62882
 433.52;   -6.125;   -1.953;    0.000;-4.17183
 433.68;   -2.657;   -5.400;    0.000; 2.74304
 433.84;    1.587;   -5.325;    0.000; 6.91226
 434.01;   -8.948;   -5.200;    0.000;-3.74800
 434.17;   -5.515;    1.659;    0.000;-7.17437
 434.33;   -3.219;    0.978;    0.000;-4.19701
 434.49;   -1.856;    2.502;    0.000;-4.35783
 434.66;   -0.395;   -5.979;    0.000; 5.58412
 434.82;   -1.626;    3.409;    0.000;-5.03450
 434.98;   -7.622;   -2.793;    0.000;-4.82873
 435.15;   -0.974;   -0.406;    0.000;-0.56838
 435.31;   -1.573;    3.218;    0.000;-4.79159
 435.47;   -6.424;    5.614;    0.000;-12.03818
 435.64;   -5.439;   -2.996;    0.000;-2.44276
 435.80;   -4.391;    5.656;    0.000;-10.04626
 435.96;    0.489;    2.581;    0.000;-2.09194
 436.12;    1.943;    5.454;    0.000;-3.51069
 436.29;   -3.405;   -3.461;    0.000; 0.05511
 436.45;   -7.058;   -2.773;    0.000;-4.28415
 436.61;   -2.967;   -5.600;    0.000; 2.63304
 436.78;   -1.694;    4.073;    0.000;-5.76655
 436.94;   -5.286;    0.411;    0.000;-5.69776
 437.10;   -6.357;    1.788;    0.000;-8.14441
 437.26;   -0.255;   -5.760;    0.000; 5.50471
 437.43;   -4.966;    7.119;    0.000;-12.08573
 437.59;   -4.778;    2.658;    0.000;-7.43597
 437.75;   -6.226;   -3.764;    0.000;-2.46188
 437.92;  -12.447;   -1.695;    0.000;-10.75212
 438.08;   -4.994;   -2.391;    0.000;-2.60373
 438.24;   -1.759;   -7.040;    0.000; 5.28097
 438.41;   -6.476;   -1.745;    0.000;-4.73148
 438.57;   -3.888;    1.130;    0.000;-5.01780
 438.73;   -3.697;   -8.927;    0.000; 5.23022
 438.89;   -2.384;    2.782;    0.000;-5.16628
 439.06;   -6.643;   -5.305;    0.000;-1.33754
 439.22;   -4.182;   10.142;    0.000;-14.32357
 439.38;    2.671;    0.705;    0.000; 1.96601
 439.54;    1.314;    2.529;    0.000;-1.21573
 439.71;   -3.789;    4.131;    0.000;-7.91994
 439.87;    0.008;   -4.738;    0.000; 4.74552
 440.03;   -8.420;    2.352;    0.000;-10.77241
 440.20;   -1.555;    0.788;    0.000;-2.34287
 440.36;   -1.453;    5.488;    0.000;-6.94119
 440.52;   -6.831;    1.037;    0.000;-7.86822
 440.68;   -6.280;   -1.753;    0.000;-4.52686
 440.85;    1.207;   -3.790;    0.000; 4.99678
 441.01;   -6.265;    2.417;    0.000;-8.68267
 441.17;   -3.657;    1.203;    0.000;-4.86049
 441.34;   -6.632;    1.482;    0.000;-8.11428
 441.50;   -6.151;    2.022;    0.000;-8.17254
 441.66;   -6.454;    3.270;    0.000;-9.72425
 441.82;   -0.580;   -4.755;    0.000; 4.17497
 441.99;  -10.129;   -3.350;    0.000;-6.77974
 442.15;   -4.250;  -10.342;    0.000; 6.09255
 442.31;   -3.368;   -0.264;    0.000;-3.10355
 442.47;   -2.098;    4.213;    0.000;-6.31165
 442.64;   -6.201;    2.073;    0.000;-8.27364
 442.80;   -4.763;    1.523;    0.000;-6.28624
 442.96;   -3.632;    8.457;    0.000;-12.08893
 443.13;   -5.249;    0.360;    0.000;-5.60884
 443.29;    0.057;   -5.839;    0.000; 5.89651
 443.45;    2.780;    6.029;    0.000;-3.24888
 443.61;   -4.357;   -7.239;    0.000; 2.88141
 443.78;   -2.366;    1.198;    0.000;-3.56410
 443.94;   -8.058;    3.082;    0.000;-11.13970
 444.10;    2.563;   -3.340;    0.000; 5.90323
 444.26;   -4.989;    3.126;    0.000;-8.11582
 444.43;    2.574;    3.831;    0.000;-1.25672
 444.59;   -0.021;    4.154;    0.000;-4.17527
 444.75;   -2.653;   -3.617;    0.000; 0.96409
 444.91;   -7.016;   -5.196;    0.000;-1.81985
 445.08;   -8.483;    3.291;    0.000;-11.77381
 445.24;   -2.859;    3.888;    0.000;-6.74701
 445.40;   -2.598;   -0.611;    0.000;-1.98721
 445.56;    3.001;   -0.535;    0.000; 3.53581
 445.73;    2.356;    1.768;    0.000; 0.58868
 445.89;    3.315;    5.804;    0.000;-2.48811
 446.05;    1.606;   -3.578;    0.000; 5.18475
 446.21;  -10.266;    4.485;    0.000;-14.75045
 446.38;   -0.719;   -4.229;    0.000; 3.50953
 446.54;   -3.440;   -2.085;    0.000;-1.35523
 446.70;   -4.586;    0.808;    0.000;-5.39390
 446.86;   -5.495;    0.853;    0.000;-6.34842
 447.03;    1.783;   -7.463;    0.000; 9.24566
 447.19;   -4.435;    2.969;    0.000;-7.40366
 447.35;   -5.857;    2.059;    0.000;-7.91637
 447.51;   -7.926;    8.245;    0.000;-16.17045
 447.68;   -1.473;   -0.833;    0.000;-0.63956
 447.84;   -1.593;    1.032;    0.000;-2.62532
 448.00;   -1.371;   -5.417;    0.000; 4.04616
 448.16;    0.927;    1.625;    0.000;-0.69774
 448.33;   -1.894;    1.367;    0.000;-3.26060
 448.49;   -8.284;    7.280;    0.000;-15.56413
 448.65;   -4.264;   -2.032;    0.000;-2.23275
 448.81;   -2.339;    0.222;    0.000;-2.56034
 448.98;   -1.592;   -9.227;    0.000; 7.63500
 449.14;  -10.849;    6.311;    0.000;-17.16027
 449.30;    8.464;   -1.165;    0.000; 9.62852
 449.46;   -0.396;    4.038;    0.000;-4.43410
 449.63;   -1.171;   -2.499;    0.000; 1.32786
 449.79;   -1.955;    6.717;    0.000;-8.67267
 449.95;   -0.757;   -6.657;    0.000; 5.89938
 450.11;   -7.932;   -8.528;    0.000; 0.59643
 450.28;    6.543;   -6.643;    0.000;13.18617
 450.44;   -3.118;    0.035;    0.000;-3.15335
 450.60;   -2.435;    4.628;    0.000;-7.06307
 450.76;    1.524;    1.502;    0.000; 0.02198
 450.93;    1.956;   -0.330;    0.000; 2.28555
 451.09;   -5.619;   -2.766;    0.000;-2.85256
 451.25;   -1.254;    3.492;    0.000;-4.74628
 451.41;   -5.642;   -0.735;    0.000;-4.90690
 451.57;   -2.170;  -13.294;    0.000;11.12438
 451.74;   -0.310;    0.850;    0.000;-1.15948
 451.90;    2.487;   -0.675;    0.000; 3.16213
 452.06;   -3.535;    5.546;    0.000;-9.08124
 452.22;   -6.055;  -11.227;    0.000; 5.17261
 452.39;   -4.650;    3.030;    0.000;-7.67967
 452.55;   -6.980;   -5.470;    0.000;-1.51091
 452.71;   -3.098;   -0.941;    0.000;-2.15741
 452.87;   -7.142;   -1.603;    0.000;-5.53893
 453.03;   -5.492;    4.756;    0.000;-10.24833
 453.20;   -4.076;   -1.859;    0.000;-2.21652
 453.36;   -5.014;    0.327;    0.000;-5.34060
 453.52;    0.125;   -2.728;    0.000; 2.85249
 453.68;    0.549;   -0.803;    0.000; 1.35211
 453.85;  -11.056;    4.125;    0.000;-15.18097
 454.01;   -6.467;    2.158;    0.000;-8.62585
 454.17;   -3.661;    0.011;    0.000;-3.67234
 454.33;   -1.458;    1.149;    0.000;-2.60760
 454.49;   -0.552;    2.758;    0.000;-3.31056
 454.66;   -2.799;    0.938;    0.000;-3.73701
 454.82;   -4.462;   -2.606;    0.000;-1.85683
 454.98;    0.571;   -2.638;    0.000; 3.20823
 455.14;   -2.025;   -3.259;    0.000; 1.23308
 455.31;   -9.782;   -1.492;    0.000;-8.29036
 455.47;   -8.843;   -2.081;    0.000;-6.76179
 455.63;   -8.242;    5.428;    0.000;-13.67036
 455.79;   -8.210;    2.381;    0.000;-10.59110
 455.95;   -3.958;    6.772;    0.000;-10.72990
 456.12;  -10.202;   -1.650;    0.000;-8.55155
 456.28;   -8.378;   -7.088;    0.000;-1.28983
 456.44;   -5.252;    0.402;    0.000;-5.65337
 456.60;   -6.129;    1.373;    0.000;-7.50217
 456.76;   -2.587;   -3.389;    0.000; 0.80244
 456.93;   -1.811;   -1.360;    0.000;-0.45174
 457.09;   -4.557;    2.058;    0.000;-6.61494
 457.25;   -3.708;   -1.509;    0.000;-2.19840
 457.41;   -3.911;   -2.502;    0.000;-1.40952
 457.57;   -2.774;   -5.552;    0.000; 2.77777
 457.74;   -0.365;   -3.442;    0.000; 3.07693
 457.90;   -0.233;    2.479;    0.000;-2.71199
 458.06;    1.053;   -5.480;    0.000; 6.53323
 458.22;   -0.729;   -0.779;    0.000; 0.05077
 458.39;   -3.078;    0.709;    0.000;-3.78617
 458.55;   -4.969;    3.675;    0.000;-8.64419
 458.71;    1.891;    1.372;    0.000; 0.51914
 458.87;   -3.782;   -5.870;    0.000; 2.08742
 459.03;   -0.595;   -1.042;    0.000; 0.44674
 459.20;   -5.408;    4.356;    0.000;-9.76355
 459.36;   -4.521;    1.753;    0.000;-6.27364
 459.52;    0.027;    2.767;    0.000;-2.73976
 459.68;   -4.865;    4.854;    0.000;-9.71914
 459.84;    0.544;    7.778;    0.000;-7.23430
 460.00;   -9.268;   -2.109;    0.000;-7.15963
 460.17;    1.062;    8.954;    0.000;-7.89153
 460.33;   -0.545;   -8.206;    0.000; 7.66189
 460.49;   -5.053;   -0.034;    0.000;-5.01937
 460.65;    7.939;   -7.586;    0.000;15.52504
 460.81;    0.470;   -4.255;    0.000; 4.72477
 460.98;   -0.923;   -2.367;    0.000; 1.44396
 461.14;    2.258;    0.521;    0.000; 1.73682
 461.30;    1.297;    6.486;    0.000;-5.18866
 461.46;   -1.702;    3.789;    0.000;-5.49095
 461.62;   -1.002;    0.077;    0.000;-1.07893
 461.79;   -0.790;    1.709;    0.000;-2.49928
 461.95;   -2.752;   -1.573;    0.000;-1.17945
 462.11;    0.490;    3.506;    0.000;-3.01666
 462.27;   -4.664;    1.005;    0.000;-5.66910
 462.43;  -10.610;   -1.674;    0.000;-8.93666
 462.60;   -7.110;    0.972;    0.000;-8.08170
 462.76;    0.755;    0.941;    0.000;-0.18588
 462.92;    1.914;    1.840;    0.000; 0.07407
 463.08;   -5.500;    1.918;    0.000;-7.41785
 463.24;   -5.325;   -2.541;    0.000;-2.78346
 463.40;   -6.663;   -1.472;    0.000;-5.19139
 463.57;    0.014;   -0.346;    0.000; 0.36002
 463.73;   -3.692;    6.624;    0.000;-10.31540
 463.89;    2.507;    1.298;    0.000; 1.20881
 464.05;   -4.823;   -0.188;    0.000;-4.63544
 464.21;  -12.997;   -6.937;    0.000;-6.05958
 464.37;   -0.924;    8.068;    0.000;-8.99203
 464.54;   -4.209;    0.530;    0.000;-4.73903
 464.70;   -2.648;    3.841;    0.000;-6.48943
 464.86;    0.958;    6.921;    0.000;-5.96298
 465.02;   -9.051;    0.087;    0.000;-9.13789
 465.18;   -2.213;   -2.224;    0.000; 0.01031
 465.35;   -6.852;   -6.282;    0.000;-0.57056
 465.51;   -4.021;    1.923;    0.000;-5.94417
 465.67;   -6.353;    0.097;    0.000;-6.44996
 465.83;   -3.592;   -1.739;    0.000;-1.85298
 465.99;   -6.499;    4.636;    0.000;-11.13459
 466.15;   -0.629;   -0.646;    0.000; 0.01731
 466.32;   -2.322;  -11.533;    0.000; 9.21107
 466.48;   -0.932;    3.120;    0.000;-4.05155
 466.64;   -2.066;    3.860;    0.000;-5.92613
 466.80;   -2.693;   -1.685;    0.000;-1.00826
 466.96;   -3.522;    5.640;    0.000;-9.16135
 467.12;   -4.549;   -4.597;    0.000; 0.04771
 467.29;   -2.359;    3.473;    0.000;-5.83126
 467.45;   -3.665;  -13.241;    0.000; 9.57634
 467.61;    0.319;    2.811;    0.000;-2.49214
 467.77;   -6.329;   -4.589;    0.000;-1.74047
 467.93;  -14.543;    1.240;    0.000;-15.78342
 468.09;   -3.828;   -8.846;    0.000; 5.01815
 468.25;   -7.255;   -3.909;    0.000;-3.34692
 468.42;   -7.808;   -4.437;    0.000;-3.37146
 468.58;   -2.119;   -0.791;    0.000;-1.32844
 468.74;   -7.822;   -0.718;    0.000;-7.10461
 468.90;   -7.198;    1.710;    0.000;-8.90800
 469.06;   -0.034;    1.101;    0.000;-1.13485
 469.22;   -6.725;    7.015;    0.000;-13.73941
 469.39;   -5.537;   -0.634;    0.000;-4.90311
 469.55;   -6.665;    1.446;    0.000;-8.11084
 469.71;    2.651;    0.962;    0.000; 1.68914
 469.87;    3.367;   -6.862;    0.000;10.22984
 470.03;    4.284;    0.006;    0.000; 4.27773
 470.19;    0.489;    8.420;    0.000;-7.93174
 470.35;   -3.667;   -3.150;    0.000;-0.51677
 470.52;    3.511;    4.032;    0.000;-0.52106
 470.68;   -0.397;    1.850;    0.000;-2.24716
 470.84;    4.969;    9.603;    0.000;-4.63404
 471.00;   -9.109;   -2.188;    0.000;-6.92106
 471.16;   -5.940;    6.780;    0.000;-12.71987
 471.32;    2.754;  -11.370;    0.000;14.12367
 471.49;   -7.550;    0.462;    0.000;-8.01137
 471.65;    3.299;    3.253;    0.000; 0.04564
 471.81;   -7.383;    6.389;    0.000;-13.77199
 471.97;    1.428;   -4.727;    0.000; 6.15520
 472.13;   -0.548;   -0.889;    0.000; 0.34057
 472.29;   -3.975;   -2.686;    0.000;-1.28921
 472.45;    3.780;   11.161;    0.000;-7.38110
 472.62;    2.964;   -2.317;    0.000; 5.28105
 472.78;   -8.066;    7.346;    0.000;-15.41227
 472.94;   -7.338;   -5.204;    0.000;-2.13408
 473.10;   -6.965;    0.240;    0.000;-7.20509
 473.26;   -3.570;   -3.325;    0.000;-0.24535
 473.42;   -6.438;    2.096;    0.000;-8.53395
 473.58;    1.302;    3.073;    0.000;-1.77146
 473.74;   -8.027;    3.953;    0.000;-11.98082
 473.91;   -5.713;    1.485;    0.000;-7.19826
 474.07;   -2.744;    2.907;    0.000;-5.65080
 474.23;   -2.429;   -4.519;    0.000; 2.09077
 474.39;   -1.803;    0.948;    0.000;-2.75139
 474.55;   -0.904;   -0.132;    0.000;-0.77223
 474.71;    6.091;    3.681;    0.000; 2.40973
 474.87;   -5.352;   -3.441;    0.000;-1.91148
 475.04;   -3.645;    3.031;    0.000;-6.67549
 475.20;   -3.312;   -3.696;    0.000; 0.38420
 475.36;  -12.226;   -0.651;    0.000;-11.57450
 475.52;   -4.546;   -1.647;    0.000;-2.89875
 475.68;   -2.188;    1.010;    0.000;-3.19800
 475.84;   -7.300;    3.962;    0.000;-11.26170
 476.00;   -6.028;    0.497;    0.000;-6.52558
 476.16;    3.180;   -5.958;    0.000; 9.13830
 476.33;   -0.589;   -3.523;    0.000; 2.93378
 476.49;    1.117;   -6.014;    0.000; 7.13154
 476.65;    0.359;    7.126;    0.000;-6.76626
 476.81;    4.387;   -0.144;    0.000; 4.53134
 476.97;   -9.874;    1.058;    0.000;-10.93223
 477.13;   -3.761;   -5.374;    0.000; 1.61321
 477.29;   -5.233;    3.886;    0.000;-9.11813
 477.45;    1.909;   -2.249;    0.000; 4.15786
 477.61;  -10.811;    3.750;    0.000;-14.56174
 477.78;    0.816;   -0.157;    0.000; 0.97332
 477.94;   -8.046;    4.463;    0.000;-12.50875
 478.10;   -2.081;   -1.911;    0.000;-0.17031
 478.26;   -4.372;    3.528;    0.000;-7.90036
 478.42;   -0.726;    2.314;    0.000;-3.03998
 478.58;   -6.087;   -1.294;    0.000;-4.79311
 478.74;   -1.345;    0.569;    0.000;-1.91489
 478.90;    4.694;    4.171;    0.000; 0.52224
 479.07;    1.877;   -0.809;    0.000; 2.68619
 479.23;   -2.418;    1.016;    0.000;-3.43395
 479.39;   -1.210;   -3.440;    0.000; 2.23052
 479.55;    2.716;   -3.157;    0.000; 5.87293
 479.71;   -0.082;    6.224;    0.000;-6.30540
 479.87;   -0.170;    5.068;    0.000;-5.23785
 480.03;   -6.942;    3.933;    0.000;-10.87480
 480.19;   -3.742;    4.963;    0.000;-8.70480
 480.35;  -10.243;    1.025;    0.000;-11.26806
 480.51;    1.973;   -2.308;    0.000; 4.28101
 480.68;   -0.898;    5.462;    0.000;-6.36003
 480.84;   -3.553;    2.985;    0.000;-6.53897
 481.00;   -2.395;   -3.563;    0.000; 1.16733
 481.16;   -2.335;   -1.560;    0.000;-0.77529
 481.32;   -5.357;   -7.398;    0.000; 2.04121
 481.48;    4.209;   -1.904;    0.000; 6.11231
 481.64;    0.144;   -2.445;    0.000; 2.58903
 481.80;   -2.036;   -2.554;    0.000; 0.51780
 481.96;   -1.576;    0.582;    0.000;-2.15795
 482.13;   -8.271;    1.288;    0.000;-9.55868
 482.29;    1.056;   -4.006;    0.000; 5.06169
 482.45;   -4.770;   -3.190;    0.000;-1.57948
 482.61;    0.074;   -1.768;    0.000; 1.84165
 482.77;   -0.017;    6.173;    0.000;-6.19049
 482.93;    4.487;   -6.295;    0.000;10.78213
 483.09;   -5.672;   -0.600;    0.000;-5.07258
 483.25;    3.778;   -3.091;    0.000; 6.86905
 483.41;   -9.859;   -0.339;    0.000;-9.51923
 483.57;   -2.740;    0.300;    0.000;-3.03948
 483.73;   -6.109;    0.649;    0.000;-6.75824
 483.90;    7.754;   -1.557;    0.000; 9.31125
 484.06;   -3.826;   -0.414;    0.000;-3.41188
 484.22;   -2.899;   -4.591;    0.000; 1.69176
 484.38;   -3.514;   10.414;    0.000;-13.92798
 484.54;   -3.149;   -3.938;    0.000; 0.78934
 484.70;   -7.502;    8.605;    0.000;-16.10710
 484.86;   -9.040;    2.862;    0.000;-11.90170
 485.02;   -5.885;   -3.088;    0.000;-2.79751
 485.18;    2.649;   -4.794;    0.000; 7.44302
 485.34;   -1.286;    2.349;    0.000;-3.63573
 485.50;    1.621;    0.017;    0.000; 1.60469
 485.66;  -11.737;    0.046;    0.000;-11.78271
 485.83;    1.702;    1.265;    0.000; 0.43735
 485.99;   -7.953;   -2.637;    0.000;-5.31604
 486.15;   -1.413;   -6.186;    0.000; 4.77233
 486.31;   -3.590;    0.863;    0.000;-4.45353
 486.47;   -5.908;   -0.334;    0.000;-5.57427
 486.63;   -1.994;    4.420;    0.000;-6.41425
 486.79;    0.798;   -3.517;    0.000; 4.31480
 486.95;   -6.095;    1.952;    0.000;-8.04751
 487.11;   -7.504;   -4.992;    0.000;-2.51203
 487.27;   -9.487;    3.149;    0.000;-12.63657
 487.43;   -1.784;   -1.904;    0.000; 0.12051
 487.59;    2.757;    2.907;    0.000;-0.15009
 487.75;    2.302;   -3.023;    0.000; 5.32553
 487.92;   -2.147;   -1.207;    0.000;-0.93978
 488.08;   -1.798;   -1.640;    0.000;-0.15820
 488.24;   -1.479;   -1.127;    0.000;-0.35249
 488.40;   -2.287;   -0.293;    0.000;-1.99331
 488.56;   -0.174;    6.904;    0.000;-7.07850
 488.72;    1.713;    0.043;    0.000; 1.67061
 488.88;   -3.204;   -4.742;    0.000; 1.53757
 489.04;   -0.533;   -0.605;    0.000; 0.07174
 489.20;   -9.630;    0.777;    0.000;-10.40686
 489.36;    0.744;    8.323;    0.000;-7.57875
 489.52;   -6.881;   -0.075;    0.000;-6.80639
 489.68;   -4.007;   -5.106;    0.000; 1.09898
 489.84;    1.814;    6.045;    0.000;-4.23148
 490.00;   -9.129;   -3.845;    0.000;-5.28328
 490.16;    6.164;    2.119;    0.000; 4.04550
 490.33;   -4.671;    4.712;    0.000;-9.38254
 490.49;   -8.261;    5.097;    0.000;-13.35789
 490.65;   -5.719;   -1.575;    0.000;-4.14432
 490.81;   -2.016;   -3.039;    0.000; 1.02328
 490.97;   -6.418;    0.787;    0.000;-7.20518
 491.13;  -12.542;   -1.998;    0.000;-10.54337
 491.29;   -6.572;   -3.691;    0.000;-2.88075
 491.45;   -3.660;    1.229;    0.000;-4.88908
 491.61;   -3.188;   -2.903;    0.000;-0.28571
 491.77;   -4.281;    4.770;    0.000;-9.05174
 491.93;   -1.293;   -0.745;    0.000;-0.54787
 492.09;   -3.878;    4.649;    0.000;-8.52760
 492.25;   -4.144;   -1.018;    0.000;-3.12648
 492.41;    3.020;    4.039;    0.000;-1.01928
 492.57;    9.145;   -2.115;    0.000;11.25987
 492.73;   -4.771;    3.726;    0.000;-8.49749
 492.89;   -3.023;   -4.228;    0.000; 1.20436
 493.05;  -11.895;    2.622;    0.000;-14.51608
 493.22;   -1.147;    0.305;    0.000;-1.45141
 493.38;    2.819;    3.917;    0.000;-1.09809
 493.54;    0.502;   -6.620;    0.000; 7.12180
 493.70;   -2.658;    3.222;    0.000;-5.88003
 493.86;   -0.162;   -1.127;    0.000; 0.96500
 494.02;   -6.263;    1.040;    0.000;-7.30362
 494.18;   -5.419;   -6.454;    0.000; 1.03521
 494.34;   -2.147;   -0.663;    0.000;-1.48434
 494.50;   -6.260;  -11.182;    0.000; 4.92215
 494.66;  -10.323;    3.801;    0.000;-14.12388
 494.82;   -5.089;    0.918;    0.000;-6.00661
 494.98;   -6.050;    5.110;    0.000;-11.15987
 495.14;   -1.074;    1.505;    0.000;-2.57910
 495.30;   -1.560;    7.811;    0.000;-9.37150
 495.46;   -5.449;   -9.425;    0.000; 3.97568
 495.62;   -5.592;    0.850;    0.000;-6.44135
 495.78;  -11.309;    5.591;    0.000;-16.90079
 495.94;   -4.511;   -5.904;    0.000; 1.39231
 496.10;  -10.067;   -2.957;    0.000;-7.10939
 496.26;   -5.294;   -2.938;    0.000;-2.35628
 496.42;    0.082;   -2.954;    0.000; 3.03573
 496.58;   -2.326;    2.509;    0.000;-4.83470
 496.74;   -4.416;    7.017;    0.000;-11.43351
 496.90;   -7.805;    2.158;    0.000;-9.96287
 497.06;   -5.058;   -6.324;    0.000; 1.26592
 497.22;   -4.538;    2.531;    0.000;-7.06943
 497.38;    1.642;   -0.711;    0.000; 2.35311
 497.55;    0.786;    0.987;    0.000;-0.20100
 497.71;   13.487;   -6.977;    0.000;20.46416
 497.87;   14.647;   -0.260;    0.000;14.90658
 498.03;   16.059;   -3.166;    0.000;19.22504
 498.19;   29.860;    7.564;    0.000;22.29537
 498.35;   20.728;   -7.864;    0.000;28.59238
 498.51;   -1.158;   -2.177;    0.000; 1.01835
 498.67;   -4.214;   -3.396;    0.000;-0.81727
 498.83;   -4.940;    4.140;    0.000;-9.07967
 498.99;  -10.567;    5.495;    0.000;-16.06161
 499.15;   -2.796;    2.782;    0.000;-5.57835
 499.31;   -9.921;    0.678;    0.000;-10.59972
 499.47;   -2.421;    4.217;    0.000;-6.63789
 499.63;   -1.691;   -2.653;    0.000; 0.96198
 499.79;   -6.105;   -2.075;    0.000;-4.02961
 499.95;   -1.031;   -4.847;    0.000; 3.81603
 500.11;    4.238;    1.582;    0.000; 2.65643
 500.27;    0.982;    1.230;    0.000;-0.24800
 500.43;   -0.211;   -0.988;    0.000; 0.77623
 500.59;   -2.301;   -2.343;    0.000; 0.04178
 500.75;  -11.802;    6.535;    0.000;-18.33710
 500.91;   -2.789;   -1.625;    0.000;-1.16432
 501.07;   -2.114;   -7.808;    0.000; 5.69372
 501.23;   -1.524;    1.960;    0.000;-3.48406
 501.39;   -1.952;    5.508;    0.000;-7.46056
 501.55;   -6.754;   -2.447;    0.000;-4.30707
 501.71;   -1.417;    0.047;    0.000;-1.46383
 501.87;   -3.069;   -1.155;    0.000;-1.91432
 502.03;  -13.346;    5.052;    0.000;-18.39783
 502.19;   -1.242;   -6.239;    0.000; 4.99702
 502.35;   -5.463;    0.897;    0.000;-6.35956
 502.51;   -4.569;    3.004;    0.000;-7.57289
 502.67;   -7.153;    4.848;    0.000;-12.00119
 502.83;   -7.673;   -4.765;    0.000;-2.90787
 502.99;   -2.045;    3.102;    0.000;-5.14608
 503.15;   -1.718;    1.307;    0.000;-3.02538
 503.31;   -1.006;    1.441;    0.000;-2.44776
 503.47;    1.039;   -5.518;    0.000; 6.55707
 503.63;   -1.410;    1.950;    0.000;-3.35967
 503.79;   -0.906;   -0.246;    0.000;-0.66018
 503.95;   -3.381;    2.547;    0.000;-5.92829
 504.11;    0.184;   -2.539;    0.000; 2.72348
 504.27;   -3.597;    4.161;    0.000;-7.75859
 504.43;   -1.484;    2.606;    0.000;-4.09040
 504.59;   -8.631;   12.328;    0.000;-20.95972
 504.75;   -9.267;    8.458;    0.000;-17.72403
 504.91;  -11.831;   -3.967;    0.000;-7.86436
 505.07;    0.082;   -2.050;    0.000; 2.13200
 505.23;   -9.684;    4.571;    0.000;-14.25505
 505.39;   -6.789;   -2.375;    0.000;-4.41348
 505.55;   -3.133;    2.122;    0.000;-5.25544
 505.71;    5.432;   -1.126;    0.000; 6.55815
 505.87;   -8.222;   -1.368;    0.000;-6.85337
 506.03;   -5.681;    5.172;    0.000;-10.85377
 506.19;   -0.745;    6.942;    0.000;-7.68732
 506.35;   -2.996;   -0.245;    0.000;-2.75045
 506.51;    3.568;    7.176;    0.000;-3.60762
 506.67;   -3.269;    1.797;    0.000;-5.06531
 506.83;   -1.832;   -2.102;    0.000; 0.26964
 506.99;   -5.819;   -1.408;    0.000;-4.41106
 507.15;   -9.539;    1.591;    0.000;-11.13027
 507.31;   -2.611;   -1.378;    0.000;-1.23293
 507.47;    4.072;    5.722;    0.000;-1.65022
 507.63;    0.775;    2.218;    0.000;-1.44287
 507.79;   -3.118;    7.837;    0.000;-10.95518
 507.95;   -2.332;    9.757;    0.000;-12.08905
 508.11;   -2.028;    4.618;    0.000;-6.64578
 508.27;   -0.232;   -3.722;    0.000; 3.48964
 508.43;    5.968;   -0.647;    0.000; 6.61500
 508.59;   -4.638;   -1.565;    0.000;-3.07245
 508.75;    0.536;   -0.587;    0.000; 1.12332
 508.91;    4.439;   -1.299;    0.000; 5.73786
 509.07;   -6.153;   -2.717;    0.000;-3.43624
 509.23;   -0.342;    3.473;    0.000;-3.81520
 509.39;   -1.422;   -4.419;    0.000; 2.99682
 509.55;   -0.637;   -3.880;    0.000; 3.24323
 509.71;   -0.305;    0.640;    0.000;-0.94509
 509.86;   -4.324;   -1.902;    0.000;-2.42243
 510.02;   -6.006;    3.529;    0.000;-9.53573
 510.18;   -1.662;   -0.392;    0.000;-1.26965
 510.34;   -0.151;    6.688;    0.000;-6.83972
 510.50;   -5.131;   -0.891;    0.000;-4.24011
 510.66;   -2.783;   -1.951;    0.000;-0.83199
 510.82;   -8.424;   -3.396;    0.000;-5.02838
 510.98;    1.727;    6.596;    0.000;-4.86813
 511.14;    3.010;    5.999;    0.000;-2.98888
 511.30;   -2.331;   -1.270;    0.000;-1.06051
 511.46;   -2.458;   -8.538;    0.000; 6.07978
 511.62;   -3.985;    7.009;    0.000;-10.99346
 511.78;    1.816;   -1.575;    0.000; 3.39123
 511.94;   -2.750;   -0.833;    0.000;-1.91725
 512.10;   -5.544;   -4.441;    0.000;-1.10282
 512.26;    5.050;    1.364;    0.000; 3.68608
 512.42;    3.905;   -3.259;    0.000; 7.16451
 512.58;   -5.919;    3.182;    0.000;-9.10086
 512.74;   -7.069;   -4.191;    0.000;-2.87824
 512.90;   -5.412;   10.353;    0.000;-15.76520
 513.06;   -0.793;   -1.545;    0.000; 0.75213
 513.22;   -3.847;    1.720;    0.000;-5.56696
 513.38;   -7.468;    2.213;    0.000;-9.68165
 513.54;    2.577;    5.900;    0.000;-3.32362
 513.70;    1.624;   -1.770;    0.000; 3.39387
 513.86;   -6.335;   -5.057;    0.000;-1.27771
 514.01;   -5.994;    1.868;    0.000;-7.86243
 514.17;   -2.722;    2.892;    0.000;-5.61408
 514.33;   -8.441;    2.367;    0.000;-10.80789
 514.49;   -3.844;   -0.746;    0.000;-3.09818
 514.65;    4.036;   -7.837;    0.000;11.87313
 514.81;    1.127;    1.105;    0.000; 0.02206
 514.97;    5.434;    0.546;    0.000; 4.88792
 515.13;    3.217;    4.480;    0.000;-1.26342
 515.29;    2.756;    6.749;    0.000;-3.99282
 515.45;    2.585;    1.180;    0.000; 1.40471
 515.61;   -4.377;    1.080;    0.000;-5.45696
 515.77;  -11.082;   -3.288;    0.000;-7.79448
 515.93;   -1.088;   -5.935;    0.000; 4.84755
 516.09;   -1.586;   -0.328;    0.000;-1.25815
 516.25;   -2.321;    6.144;    0.000;-8.46496
 516.41;   -4.858;    5.840;    0.000;-10.69780
 516.57;    1.054;   -3.796;    0.000; 4.85002
 516.73;   -0.980;    6.819;    0.000;-7.79928
 516.89;    9.900;   -3.170;    0.000;13.07013
 517.04;   -3.756;   -0.547;    0.000;-3.20965
 517.20;   -2.837;    3.966;    0.000;-6.80324
 517.36;   -4.857;    0.379;    0.000;-5.23657
 517.52;   -0.439;   -2.533;    0.000; 2.09346
 517.68;   -3.331;    1.157;    0.000;-4.48829
 517.84;   -2.809;    3.060;    0.000;-5.86884
 518.00;   -5.545;    1.619;    0.000;-7.16366
 518.16;    6.325;   -3.885;    0.000;10.20987
 518.32;    2.079;    3.431;    0.000;-1.35214
 518.48;   -0.930;    3.040;    0.000;-3.96948
 518.64;   -5.497;   -2.429;    0.000;-3.06859
 518.80;    1.693;  -10.287;    0.000;11.97918
 518.96;    1.350;   -2.283;    0.000; 3.63275
 519.12;   -2.742;   -1.029;    0.000;-1.71318
 519.28;   -1.768;   -1.703;    0.000;-0.06415
 519.43;   -2.901;   -2.313;    0.000;-0.58789
 519.59;  -11.208;   -4.444;    0.000;-6.76395
 519.75;   -9.101;    1.050;    0.000;-10.15174
 519.91;   -2.733;    4.547;    0.000;-7.27956
 520.07;   -3.140;  -10.880;    0.000; 7.74079
 520.23;    1.151;    5.110;    0.000;-3.95843
 520.39;   -4.278;   -2.360;    0.000;-1.91764
 520.55;   -1.587;    1.010;    0.000;-2.59686
 520.71;   -7.236;    1.150;    0.000;-8.38608
 520.87;   -7.466;    1.200;    0.000;-8.66530
 521.03;   -3.285;   -2.390;    0.000;-0.89451
 521.19;   -1.614;    4.170;    0.000;-5.78373
 521.34;   -0.153;   -1.070;    0.000; 0.91705
 521.50;   -2.082;    3.610;    0.000;-5.69217
 521.66;    0.528;    5.300;    0.000;-4.77138
 521.82;    1.809;    4.940;    0.000;-3.13060
 521.98;   -4.570;    1.450;    0.000;-6.01982
 522.14;   -0.139;    2.370;    0.000;-2.50903
 522.30;   -7.608;  -13.450;    0.000; 5.84175
 522.46;   -2.468;    1.850;    0.000;-4.31747
 522.62;   -7.037;   -2.330;    0.000;-4.70669
 522.78;   -0.406;   -1.500;    0.000; 1.09410
 522.94;    0.685;    5.140;    0.000;-4.45512
 523.10;   -1.975;   -3.300;    0.000; 1.32566
 523.25;    1.396;   -2.400;    0.000; 3.79644
 523.41;   -0.693;    3.510;    0.000;-4.20277
 523.57;   -0.632;    2.850;    0.000;-3.48199
 523.73;    1.269;    0.490;    0.000; 0.77879
 523.89;   -5.421;   -7.220;    0.000; 1.79958
 524.05;   -0.830;    4.240;    0.000;-5.06964
 524.21;    2.791;    1.290;    0.000; 1.50114
 524.37;   -4.348;    3.910;    0.000;-8.25808
 524.53;   -5.077;    6.010;    0.000;-11.08729
 524.69;    0.523;    5.190;    0.000;-4.66651
 524.84;    2.814;   -2.900;    0.000; 5.71427
 525.00;    7.385;    2.190;    0.000; 5.19506
 525.16;   -3.634;    7.100;    0.000;-10.73416
 525.32;    3.607;    6.400;    0.000;-2.79338
 525.48;    2.177;   -2.970;    0.000; 5.14740
 525.64;   -3.322;   -2.600;    0.000;-0.72181
 525.80;    5.989;   -7.820;    0.000;13.80897
 525.96;   -8.710;    2.410;    0.000;-11.12025
 526.12;   -0.009;    0.350;    0.000;-0.35947
 526.28;   10.731;    4.620;    0.000; 6.11132
 526.43;   -4.638;    3.780;    0.000;-8.41790
 526.59;    0.573;    9.440;    0.000;-8.86712
 526.75;    1.754;    2.090;    0.000;-0.33633
 526.91;   -2.405;    0.260;    0.000;-2.66555
 527.07;   -8.525;   -0.800;    0.000;-7.72477
 527.23;   -7.114;    5.840;    0.000;-12.95399
 527.39;   -0.673;    4.760;    0.000;-5.43320
 527.55;   -8.942;   -2.700;    0.000;-6.24242
 527.71;    4.018;    4.930;    0.000;-0.91164
 527.86;   -3.911;   -0.360;    0.000;-3.55086
 528.02;   -0.010;   -0.480;    0.000; 0.46993
 528.18;   -8.069;   11.210;    0.000;-19.27929
 528.34;   -3.638;    2.100;    0.000;-5.73851
 528.50;   -0.658;    4.470;    0.000;-5.12772
 528.66;    1.463;   -3.700;    0.000; 5.16306
 528.82;   -5.886;   -4.650;    0.000;-1.23616
 528.98;   -0.125;    2.890;    0.000;-3.01538
 529.14;   -4.024;   -0.210;    0.000;-3.81459
 529.29;    1.566;    3.490;    0.000;-1.92381
 529.45;   -2.923;    1.950;    0.000;-4.87303
 529.61;   -7.182;    7.820;    0.000;-15.00224
 529.77;   -0.151;   -9.150;    0.000; 8.99854
 529.93;   -4.340;    3.180;    0.000;-7.52068
 530.09;    2.050;   11.460;    0.000;-9.40990
 530.25;    1.211;   -2.700;    0.000; 3.91089
 530.41;    3.262;    8.730;    0.000;-5.46833
 530.56;   -3.227;   -0.810;    0.000;-2.41755
 530.72;   -2.016;   12.340;    0.000;-14.35677
 530.88;    3.664;    1.450;    0.000; 2.21402
 531.04;    1.015;    3.830;    0.000;-2.81520
 531.20;    5.986;    3.660;    0.000; 2.32558
 531.36;   -1.823;   -0.850;    0.000;-0.97363
 531.52;   -6.813;   -2.710;    0.000;-4.10285
 531.68;   -1.372;    4.750;    0.000;-6.12207
 531.83;    2.509;   -3.710;    0.000; 6.21871
 531.99;   -0.590;    2.580;    0.000;-3.17050
 532.15;   -1.889;   -3.220;    0.000; 1.33028
 532.31;    2.551;    3.860;    0.000;-1.30894
 532.47;    0.472;    4.170;    0.000;-3.69816
 532.63;    2.453;    0.640;    0.000; 1.81263
 532.79;   -3.526;  -10.030;    0.000; 6.50341
 532.94;   -5.275;    2.650;    0.000;-7.92581
 533.10;    1.205;   -6.760;    0.000; 7.96498
 533.26;   -2.354;   -2.330;    0.000;-0.02424
 533.42;   -3.333;   -1.020;    0.000;-2.31346
 533.58;   -0.882;   -3.690;    0.000; 2.80732
 533.74;    2.149;    0.780;    0.000; 1.36811
 533.90;   -0.531;    3.120;    0.000;-3.65111
 534.05;    0.110;    0.500;    0.000;-0.39033
 534.21;   -3.019;    6.830;    0.000;-9.84954
 534.37;   -1.388;   -3.170;    0.000; 1.78124
 534.53;  -10.087;    2.390;    0.000;-12.47798
 534.69;    3.013;   -4.770;    0.000; 7.78280
 534.85;   -0.656;    5.031;    0.000;-5.68641
 535.01;   -4.555;    0.531;    0.000;-5.08563
 535.16;   -1.084;   -3.199;    0.000; 2.11515
 535.32;    2.726;   -5.809;    0.000; 8.53593
 535.48;   -7.403;   -1.559;    0.000;-5.84328
 535.64;   -1.622;   -3.619;    0.000; 1.99750
 535.80;   -3.301;   -5.179;    0.000; 1.87828
 535.96;   -5.100;   -3.659;    0.000;-1.44093
 536.12;   -0.380;   -0.389;    0.000; 0.00985
 536.27;   -8.039;    3.701;    0.000;-11.73937
 536.43;   -1.108;    2.891;    0.000;-3.99859
 536.59;   -1.327;    2.791;    0.000;-4.11780
 536.75;   -2.406;   11.611;    0.000;-14.01702
 536.91;    1.364;   -3.019;    0.000; 4.38376
 537.07;   -5.805;    3.281;    0.000;-9.08546
 537.22;   -5.594;   -4.079;    0.000;-1.51467
 537.38;   -7.953;    5.211;    0.000;-13.16389
 537.54;    1.878;   -0.699;    0.000; 2.57689
 537.70;   -5.702;   10.941;    0.000;-16.64232
 537.86;    1.349;    0.241;    0.000; 1.10846
 538.02;   -5.590;    4.861;    0.000;-10.45076
 538.17;   -1.919;   -0.109;    0.000;-1.80998
 538.33;   -1.558;   -0.409;    0.000;-1.14919
 538.49;    4.022;  -11.789;    0.000;15.81159
 538.65;   -2.747;    5.021;    0.000;-7.76763
 538.81;    7.694;   -2.289;    0.000; 9.98315
 538.97;   -5.875;   -0.579;    0.000;-5.29606
 539.13;   -0.205;   -4.509;    0.000; 4.30472
 539.28;   -3.414;    0.201;    0.000;-3.61450
 539.44;   -1.963;   -1.409;    0.000;-0.55371
 539.60;    0.638;   -0.059;    0.000; 0.69707
 539.76;    3.119;    2.291;    0.000; 0.82785
 539.92;   -1.351;    3.041;    0.000;-4.39137
 540.07;   -6.790;   -1.729;    0.000;-5.06058
 540.23;    2.271;   -7.119;    0.000; 9.39020
 540.39;    7.012;   -4.759;    0.000;11.77098
 540.55;    0.743;   -2.199;    0.000; 2.94177
 540.71;   -1.527;   -2.019;    0.000; 0.49255
 540.87;   -4.076;   -2.499;    0.000;-1.57667
 541.02;   -2.135;    0.631;    0.000;-2.76589
 541.18;   -5.344;    1.691;    0.000;-7.03510
 541.34;   -5.933;   -7.839;    0.000; 1.90568
 541.50;   -0.723;    2.751;    0.000;-3.47354
 541.66;   -3.652;   -3.559;    0.000;-0.09276
 541.82;    0.459;    3.881;    0.000;-3.42197
 541.97;    3.300;    4.781;    0.000;-1.48119
 542.13;   -1.179;    0.981;    0.000;-2.16041
 542.29;   -4.119;   -0.069;    0.000;-4.04962
 542.45;   -7.148;   11.441;    0.000;-18.58884
 542.61;   -4.827;   -1.279;    0.000;-3.54806
 542.76;   -2.316;    6.601;    0.000;-8.91728
 542.92;   -4.096;    2.521;    0.000;-6.61649
 543.08;   -4.065;    0.181;    0.000;-4.24571
 543.24;   -6.194;   -0.619;    0.000;-5.57493
 543.40;    4.247;    2.701;    0.000; 1.54585
 543.56;    6.408;    1.741;    0.000; 4.66664
 543.71;   -5.592;   -4.659;    0.000;-0.93258
 543.87;    4.459;   -4.189;    0.000; 8.64820
 544.03;    6.890;    1.041;    0.000; 5.84899
 544.19;    0.241;    3.631;    0.000;-3.39023
 544.35;   -4.968;   -0.389;    0.000;-4.57945
 544.50;    5.922;   -1.239;    0.000; 7.16133
 544.66;    0.223;    7.961;    0.000;-7.73788
 544.82;    4.764;    7.991;    0.000;-3.22710
 544.98;   -1.385;   -4.529;    0.000; 3.14368
 545.14;    6.736;   -1.719;    0.000; 8.45447
 545.29;    0.296;    0.111;    0.000; 0.18525
 545.45;   -0.293;   -2.839;    0.000; 2.54603
 545.61;   -2.642;   -0.189;    0.000;-2.45319
 545.77;   -3.691;   -0.179;    0.000;-3.51240
 545.93;   -0.560;    5.411;    0.000;-5.97162
 546.08;   -7.520;   -3.589;    0.000;-3.93084
 546.24;   -0.049;    8.401;    0.000;-8.45006
 546.40;   -3.278;    1.731;    0.000;-5.00927
 546.56;   -9.347;    2.591;    0.000;-11.93849
 546.72;    1.713;    2.331;    0.000;-0.61771
 546.87;  -10.846;    1.111;    0.000;-11.95692
 547.03;    2.565;   -1.449;    0.000; 4.01386
 547.19;   -1.944;   -1.889;    0.000;-0.05536
 547.35;    5.187;    2.261;    0.000; 2.92542
 547.51;   -2.943;    3.351;    0.000;-6.29379
 547.66;   -0.652;   -5.159;    0.000; 4.50699
 547.82;   -2.931;    5.771;    0.000;-8.70223
 547.98;   -3.310;    0.151;    0.000;-3.46145
 548.14;  -12.039;   -0.519;    0.000;-11.52066
 548.29;    0.651;    5.771;    0.000;-5.11988
 548.45;   -2.948;   -1.719;    0.000;-1.22910
 548.61;   -6.787;   -0.849;    0.000;-5.93831
 548.77;   -1.186;    4.671;    0.000;-5.85753
 548.93;   -1.365;   -0.079;    0.000;-1.28675
 549.08;   -9.295;    7.881;    0.000;-17.17597
 549.24;   -1.704;   -1.999;    0.000; 0.29482
 549.40;    0.837;    9.041;    0.000;-8.20440
 549.56;    0.188;    1.811;    0.000;-1.62362
 549.72;   -8.071;   -0.249;    0.000;-7.82283
 549.87;   -3.391;    7.291;    0.000;-10.68205
 550.03;    3.920;    3.691;    0.000; 0.22873
 550.19;   -5.869;   -2.459;    0.000;-3.41049
 550.35;   -5.498;   -5.449;    0.000;-0.04970
 550.50;   -2.918;   -0.149;    0.000;-2.76892
 550.66;    0.733;    0.691;    0.000; 0.04186
 550.82;   -0.476;    0.181;    0.000;-0.65736
 550.98;   -3.695;    7.111;    0.000;-10.80657
 551.14;    0.266;   -1.599;    0.000; 1.86421
 551.29;   -2.844;    2.461;    0.000;-5.30501
 551.45;   -3.293;    0.571;    0.000;-3.86422
 551.61;   -3.292;    3.051;    0.000;-6.34344
 551.77;    2.019;    0.791;    0.000; 1.22734
 551.92;   -1.580;    0.441;    0.000;-2.02188
 552.08;   -3.790;    1.901;    0.000;-5.69109
 552.24;   -8.779;    2.052;    0.000;-10.83031
 552.40;   -1.178;    1.592;    0.000;-2.76953
 552.55;   -0.927;    3.922;    0.000;-4.84875
 552.71;    2.304;    3.342;    0.000;-1.03796
 552.87;   -3.496;   -1.108;    0.000;-2.38718
 553.03;    0.785;   -2.978;    0.000; 3.76360
 553.19;   -4.364;    1.242;    0.000;-5.60561
 553.34;    5.217;    1.442;    0.000; 3.77517
 553.50;    1.118;   -3.008;    0.000; 4.12595
 553.66;    0.408;    4.362;    0.000;-3.95327
 553.82;   -5.861;    2.012;    0.000;-7.87248
 553.97;    3.270;   -3.148;    0.000; 6.41830
 554.13;    2.531;    0.902;    0.000; 1.62908
 554.29;    0.171;    3.722;    0.000;-3.55013
 554.45;   -4.488;    6.852;    0.000;-11.33935
 554.60;   -8.577;    1.442;    0.000;-10.01857
 554.76;    2.424;    9.332;    0.000;-6.90779
 554.92;   -2.285;   -0.968;    0.000;-1.31700
 555.08;   -4.345;    3.822;    0.000;-8.16622
 555.23;   -1.824;   -4.538;    0.000; 2.71456
 555.39;   -0.653;    9.162;    0.000;-9.81466
 555.55;    1.478;   -2.298;    0.000; 3.77613
 555.71;    0.099;    7.572;    0.000;-7.47309
 555.86;   -2.801;    2.222;    0.000;-5.02231
 556.02;   -4.140;   -1.368;    0.000;-2.77152
 556.18;    5.141;   -1.958;    0.000; 7.09926
 556.34;   -2.378;    0.712;    0.000;-3.08996
 556.49;   -1.247;   -3.888;    0.000; 2.64082
 556.65;   -6.527;   -0.288;    0.000;-6.23839
 556.81;   -5.066;    1.742;    0.000;-6.80761
 556.97;   -2.365;    6.962;    0.000;-9.32683
 557.12;   -2.084;   -3.188;    0.000; 1.10395
 557.28;   -7.053;    2.382;    0.000;-9.43526
 557.44;   -3.703;    2.992;    0.000;-6.69448
 557.60;   -8.292;   -0.148;    0.000;-8.14370
 557.75;    0.399;    6.262;    0.000;-5.86291
 557.91;   -0.830;    1.272;    0.000;-2.10213
 558.07;    6.960;    0.352;    0.000; 6.60865
 558.23;   -4.179;   -6.118;    0.000; 1.93943
 558.38;   -1.328;   -3.968;    0.000; 2.64022
 558.54;    6.403;    2.972;    0.000; 3.43100
 558.70;   -3.016;    4.022;    0.000;-7.03822
 558.86;   -9.456;    7.642;    0.000;-17.09744
 559.01;    5.995;    3.012;    0.000; 2.98335
 559.17;    1.376;    6.602;    0.000;-5.22587
 559.33;   -0.433;   -5.108;    0.000; 4.67491
 559.48;    2.078;    0.742;    0.000; 1.33570
 559.64;   -3.722;   -0.358;    0.000;-3.36352
 559.80;    1.439;    1.902;    0.000;-0.46274
 559.96;    0.890;   -1.188;    0.000; 2.07804
 560.11;   -6.629;    1.922;    0.000;-8.55117
 560.27;    4.332;    5.562;    0.000;-1.23039
 560.43;    5.902;   -6.038;    0.000;11.94039
 560.59;    3.723;   -1.528;    0.000; 5.25118
 560.74;   -1.666;   -0.248;    0.000;-1.41804
 560.90;   -1.095;   -5.558;    0.000; 4.46274
 561.06;   -1.944;    7.892;    0.000;-9.83648
 561.21;   -0.084;   -2.408;    0.000; 2.32431
 561.37;    4.817;   -0.608;    0.000; 5.42509
 561.53;    0.558;   -3.688;    0.000; 4.24587
 561.69;   -3.151;   10.052;    0.000;-13.20335
 561.84;    3.430;   -2.268;    0.000; 5.69744
 562.00;    0.890;    5.272;    0.000;-4.38178
 562.16;   -1.049;   -4.008;    0.000; 2.95900
 562.32;   -0.458;    1.402;    0.000;-1.86021
 562.47;   -8.857;    4.132;    0.000;-12.98943
 562.63;   -5.777;    4.592;    0.000;-10.36865
 562.79;    3.294;   -2.958;    0.000; 6.25213
 562.94;   -0.265;    5.022;    0.000;-5.28708
 563.10;   -4.984;   -0.128;    0.000;-4.85630
 563.26;    2.567;    4.282;    0.000;-1.71552
 563.42;    6.127;   -5.798;    0.000;11.92526
 563.57;    5.008;    4.072;    0.000; 0.93605
 563.73;   -3.991;   -0.608;    0.000;-3.38317
 563.89;    7.730;   -0.998;    0.000; 8.72761
 564.04;   -2.729;   -3.498;    0.000; 0.76840
 564.20;   -0.019;    6.682;    0.000;-6.70082
 564.36;   -0.638;   -4.708;    0.000; 4.06996
 564.51;   -8.247;    0.932;    0.000;-9.17926
 564.67;   -1.056;   -2.468;    0.000; 1.41153
 564.83;  -10.185;   -6.218;    0.000;-3.96769
 564.99;    3.045;   -6.268;    0.000; 9.31309
 565.14;   -3.824;    3.712;    0.000;-7.53612
 565.30;   -2.223;   -3.548;    0.000; 1.32466
 565.46;    1.498;    7.072;    0.000;-5.57456
 565.61;    1.409;   -4.728;    0.000; 6.13622
 565.77;   -1.821;    3.742;    0.000;-5.56299
 565.93;    1.920;   -0.328;    0.000; 2.24779
 566.09;   -5.339;   -0.448;    0.000;-4.89143
 566.24;   -0.158;   -5.148;    0.000; 4.98935
 566.40;    6.802;    9.302;    0.000;-2.49986
 566.56;    0.463;   -9.088;    0.000; 9.55092
 566.71;   -4.376;    1.832;    0.000;-6.20830
 566.87;   -4.575;    0.712;    0.000;-5.28751
 567.03;   -0.194;    0.872;    0.000;-1.06673
 567.18;    4.336;   -6.258;    0.000;10.59405
 567.34;    2.217;   -4.928;    0.000; 7.14483
 567.50;    0.798;   -8.398;    0.000; 9.19562
 567.65;    6.169;    0.562;    0.000; 5.60640
 567.81;    6.770;   -2.738;    0.000; 9.50718
 567.97;   27.340;   -4.078;    0.000;31.41796
 568.13;  128.841;   -0.298;    0.000;129.13875
 568.28;   93.212;    8.582;    0.000;84.62953
 568.44;   42.233;   -0.688;    0.000;42.92031
 568.60;  141.254;    2.972;    0.000;138.28110
 568.75;  267.404;   -5.938;    0.000;273.34188
 568.91;  104.835;    6.372;    0.000;98.46266
 569.07;   37.456;   -6.668;    0.000;44.12344
 569.22;    1.447;   -1.378;    0.000; 2.82423
 569.38;    8.888;   -2.247;    0.000;11.13501
 569.54;    6.558;    4.453;    0.000; 2.10579
 569.69;    2.369;    5.103;    0.000;-2.73342
 569.85;   -2.510;    3.043;    0.000;-5.55264
 570.01;    7.871;   -3.107;    0.000;10.97814
 570.16;   -6.749;   -0.287;    0.000;-6.46108
 570.32;   13.612;   -2.117;    0.000;15.72971
 570.48;    4.793;    8.133;    0.000;-3.33951
 570.63;    3.764;    2.743;    0.000; 1.02127
 570.79;    1.525;    6.953;    0.000;-5.42795
 570.95;    2.005;   -3.457;    0.000; 5.46284
 571.10;   -0.034;    1.253;    0.000;-1.28638
 571.26;    2.587;   -1.917;    0.000; 4.50440
 571.42;    3.058;    3.293;    0.000;-0.23481
 571.57;    8.509;    3.113;    0.000; 5.39597
 571.73;    2.839;    3.473;    0.000;-0.63325
 571.89;    6.890;    0.663;    0.000; 6.22753
 572.05;    0.931;    0.643;    0.000; 0.28832
 572.20;   10.572;   -0.247;    0.000;10.81910
 572.36;   -0.257;    5.113;    0.000;-5.37012
 572.52;    3.383;    2.033;    0.000; 1.35066
 572.67;    3.864;   -3.487;    0.000; 7.35145
 572.83;    8.975;   -3.027;    0.000;12.00223
 572.99;    0.866;    1.353;    0.000;-0.48699
 573.14;    6.807;   -0.807;    0.000; 7.61380
 573.30;    2.567;    0.763;    0.000; 1.80458
 573.45;    1.438;   -9.407;    0.000;10.84536
 573.61;    6.469;    4.103;    0.000; 2.36614
 573.77;    4.150;    4.153;    0.000;-0.00307
 573.92;   -1.750;    6.413;    0.000;-8.16229
 574.08;    8.521;   -3.877;    0.000;12.39849
 574.24;    7.482;    1.123;    0.000; 6.35927
 574.39;    2.983;    6.963;    0.000;-3.97994
 574.55;    1.234;   12.783;    0.000;-11.54916
 574.71;    7.294;   -7.197;    0.000;14.49162
 574.86;    4.405;    4.083;    0.000; 0.32241
 575.02;    6.736;    2.053;    0.000; 4.68319
 575.18;   -1.753;    3.443;    0.000;-5.19603
 575.33;    2.468;    1.083;    0.000; 1.38475
 575.49;   -0.322;   -1.997;    0.000; 1.67554
 575.65;    8.969;    2.033;    0.000; 6.93632
 575.80;    4.430;    5.623;    0.000;-1.19290
 575.96;    8.771;   -1.897;    0.000;10.66789
 576.12;    7.372;    3.073;    0.000; 4.29867
 576.27;    2.332;   -1.987;    0.000; 4.31945
 576.43;   11.483;    1.513;    0.000; 9.97023
 576.59;    6.144;    0.553;    0.000; 5.59102
 576.74;    9.335;    5.663;    0.000; 3.67180
 576.90;   12.736;   -1.247;    0.000;13.98258
 577.06;    3.686;    4.163;    0.000;-0.47664
 577.21;    6.987;  -12.977;    0.000;19.96415
 577.37;    7.158;   -2.747;    0.000; 9.90493
 577.52;    9.379;   -0.867;    0.000;10.24571
 577.68;    9.399;   -4.597;    0.000;13.99650
 577.84;    5.380;    2.623;    0.000; 2.75728
 577.99;    8.821;    3.493;    0.000; 5.32806
 578.15;    6.842;   -3.567;    0.000;10.40884
 578.31;    6.493;   -1.727;    0.000; 8.21963
 578.46;    1.473;   -2.717;    0.000; 4.19041
 578.62;    6.604;   -0.327;    0.000; 6.93119
 578.78;    6.155;   -1.747;    0.000; 7.90197
 578.93;    6.696;    8.763;    0.000;-2.06724
 579.09;    6.897;    1.963;    0.000; 4.93354
 579.24;   13.477;    3.873;    0.000; 9.60432
 579.40;    9.868;    2.333;    0.000; 7.53511
 579.56;   -1.901;   -1.407;    0.000;-0.49411
 579.71;   12.080;   -1.097;    0.000;13.17667
 579.87;   15.311;    2.423;    0.000;12.88745
 580.03;   10.571;    3.173;    0.000; 7.39824
 580.18;   10.502;    0.343;    0.000;10.15902
 580.34;   11.353;   -4.747;    0.000;16.09980
 580.49;    7.504;   -1.577;    0.000; 9.08059
 580.65;   17.295;   -1.687;    0.000;18.98137
 580.81;   15.325;    2.013;    0.000;13.31215
 580.96;   17.696;   -0.297;    0.000;17.99293
 581.12;   21.837;   10.073;    0.000;11.76372
 581.28;   20.588;   -5.957;    0.000;26.54450
 581.43;   16.868;   -0.407;    0.000;17.27528
 581.59;   13.409;    0.703;    0.000;12.70606
 581.74;   17.420;    5.083;    0.000;12.33685
 581.90;   18.321;   -1.697;    0.000;20.01763
 582.06;   22.712;    4.413;    0.000;18.29841
 582.21;   14.952;    0.353;    0.000;14.59920
 582.37;   15.853;   -4.307;    0.000;20.15998
 582.53;   11.524;    3.463;    0.000; 8.06076
 582.68;   14.655;    4.773;    0.000; 9.88154
 582.84;   18.006;    2.843;    0.000;15.16233
 582.99;   16.896;   -1.517;    0.000;18.41311
 583.15;   14.457;    1.123;    0.000;13.33389
 583.31;   17.358;    5.903;    0.000;11.45467
 583.46;   16.309;   -6.627;    0.000;22.93546
 583.62;   17.320;    7.053;    0.000;10.26624
 583.77;   15.300;   -0.257;    0.000;15.55702
 583.93;   16.651;   -1.177;    0.000;17.82781
 584.09;   15.852;   -3.617;    0.000;19.46859
 584.24;    5.973;    1.973;    0.000; 3.99937
 584.40;    8.214;   -2.267;    0.000;10.48015
 584.55;   10.624;   11.553;    0.000;-0.92906
 584.71;   16.185;    3.843;    0.000;12.34172
 584.87;    7.416;    8.703;    0.000;-1.28750
 585.02;   18.377;    8.983;    0.000; 9.39329
 585.18;   23.037;    4.213;    0.000;18.82407
 585.33;   23.158;   -0.997;    0.000;24.15485
 585.49;   20.189;    7.103;    0.000;13.08563
 585.65;   28.320;   -2.717;    0.000;31.03642
 585.80;   28.541;    0.223;    0.000;28.31720
 585.96;   29.581;   -4.917;    0.000;34.49798
 586.11;   28.912;    1.833;    0.000;27.07876
 586.27;   36.983;    3.023;    0.000;33.95955
 586.43;   39.944;    9.333;    0.000;30.61033
 586.58;   44.635;   -1.236;    0.000;45.87111
 586.74;   59.185;   -0.746;    0.000;59.93190
 586.89;   84.686;   -2.956;    0.000;87.64268
 587.05;   84.957;    1.084;    0.000;83.87346
 587.21;   94.318;    4.314;    0.000;90.00424
 587.36;  113.359;    1.064;    0.000;112.29503
 587.52;  138.629;   -2.456;    0.000;141.08581
 587.67;  166.390;    2.504;    0.000;163.88659
 587.83;  194.461;    1.704;    0.000;192.75737
 587.99;  261.592;    4.684;    0.000;256.90816
 588.14;  413.473;    1.704;    0.000;411.76894
 588.30;  727.903;    6.344;    0.000;721.55972
 588.45; 1495.814;   -2.916;    0.000;1498.73051
 588.61; 4881.175;    3.264;    0.000;4877.91129
 588.77;40529.626;   -1.726;    0.000;40531.35207
 588.92;60833.206;    3.154;    0.000;60830.05285
 589.08;37196.247;    1.204;    0.000;37195.04364
 589.23;21531.088;    8.454;    0.000;21522.63442
 589.39;50398.399;    3.734;    0.000;50394.66520
 589.54;59721.600;    3.724;    0.000;59717.87598
 589.70;27725.550;   -2.966;    0.000;27728.51677
 589.86;10653.131;   -4.836;    0.000;10657.96755
 590.01; 3010.192;    0.004;    0.000;3010.18833
 590.17; 2094.613;   -0.196;    0.000;2094.80912
 590.32;  757.474;   -2.996;    0.000;760.46990
 590.48; 1037.274;    1.614;    0.000;1035.66068
 590.63;  406.405;   -1.206;    0.000;407.61146
 590.79;  698.306;    4.214;    0.000;694.09225
 590.95;  262.287;    5.854;    0.000;256.43303
 591.10;  525.128;    2.124;    0.000;523.00381
 591.26;  201.898;   -1.346;    0.000;203.24460
 591.41;  429.239;   -5.886;    0.000;435.12538
 591.57;  156.920;    5.254;    0.000;151.66616
 591.72;  358.961;    5.554;    0.000;353.40694
 591.88;  141.202;    3.154;    0.000;138.04773
 592.04;  312.822;    9.774;    0.000;303.04851
 592.19;  114.403;    3.884;    0.000;110.51929
 592.35;  271.644;    6.824;    0.000;264.82007
 592.50;   99.115;    0.014;    0.000;99.10086
 592.66;  242.125;    2.334;    0.000;239.79164
 592.81;   86.366;   -1.646;    0.000;88.01242
 592.97;  223.177;    3.874;    0.000;219.30321
 593.13;   77.628;    2.574;    0.000;75.05399
 593.28;  201.999;    0.644;    0.000;201.35477
 593.44;   78.779;    1.934;    0.000;76.84555
 593.59;  186.230;    2.404;    0.000;183.82634
 593.75;   66.471;   -6.146;    0.000;72.61712
 593.90;  166.992;    8.164;    0.000;158.82790
 594.06;   64.743;    3.804;    0.000;60.93868
 594.21;  156.623;   -0.176;    0.000;156.79947
 594.37;   52.344;   -1.126;    0.000;53.47025
 594.53;  140.775;    5.684;    0.000;135.09103
 594.68;   50.246;    3.694;    0.000;46.55182
 594.84;  133.587;    0.594;    0.000;132.99260
 594.99;   44.587;    0.784;    0.000;43.80338
 595.15;  129.878;    9.694;    0.000;120.18416
 595.30;   36.679;   -0.106;    0.000;36.78495
 595.46;  112.400;    0.854;    0.000;111.54573
 595.61;   38.241;    1.864;    0.000;36.37651
 595.77;  111.161;    5.444;    0.000;105.71730
 595.92;   35.492;   -0.466;    0.000;35.95808
 596.08;   96.643;    4.944;    0.000;91.69886
 596.24;   27.544;    2.504;    0.000;25.03964
 596.39;   93.805;    6.254;    0.000;87.55043
 596.55;   32.085;   -4.726;    0.000;36.81121
 596.70;   98.116;    6.004;    0.000;92.11199
 596.86;   29.267;   -0.666;    0.000;29.93277
 597.01;   84.868;   -3.176;    0.000;88.04356
 597.17;   34.198;   -1.776;    0.000;35.97434
 597.32;   83.819;   -1.676;    0.000;85.49512
 597.48;   27.540;    2.274;    0.000;25.26591
 597.63;   76.741;    7.284;    0.000;69.45669
 597.79;   24.442;   -3.976;    0.000;28.41747
 597.94;   79.022;    9.334;    0.000;69.68825
 598.10;   24.993;   -2.456;    0.000;27.44904
 598.26;   71.114;    6.454;    0.000;64.65982
 598.41;   17.265;   -0.046;    0.000;17.31060
 598.57;   75.946;    3.294;    0.000;72.65138
 598.72;   19.166;   -7.446;    0.000;26.61217
 598.88;   75.607;    2.464;    0.000;73.14295
 599.03;   14.158;   -3.756;    0.000;17.91373
 599.19;   69.299;    0.084;    0.000;69.21452
 599.34;   24.990;    1.634;    0.000;23.35530
 599.50;   58.800;   14.514;    0.000;44.28608
 599.65;   17.901;   -3.586;    0.000;21.48686
 599.81;   62.392;    5.474;    0.000;56.91765
 599.96;   23.003;    1.124;    0.000;21.87843
 600.12;   64.354;    4.494;    0.000;59.85921
 600.27;   15.504;    7.814;    0.000; 7.69000
 600.43;   58.665;    3.724;    0.000;54.94078
 600.58;   16.186;   -2.426;    0.000;18.61156
 600.74;   51.637;    1.444;    0.000;50.19234
 600.90;   19.737;   -5.116;    0.000;24.85313
 601.05;   53.248;   -0.186;    0.000;53.43391
 601.21;   13.009;   -1.546;    0.000;14.55469
 601.36;   52.910;    5.814;    0.000;47.09547
 601.52;   13.021;   -2.326;    0.000;15.34626
 601.67;   53.641;    8.364;    0.000;45.27704
 601.83;   20.092;    0.674;    0.000;19.41782
 601.98;   45.623;    1.044;    0.000;44.57861
 602.14;   16.424;   -2.426;    0.000;18.84939
 602.29;   48.735;   -0.696;    0.000;49.43017
 602.45;   14.265;   -0.736;    0.000;15.00095
 602.60;   47.806;    2.524;    0.000;45.28174
 602.76;   17.157;   -7.236;    0.000;24.39252
 602.91;   42.578;    5.144;    0.000;37.43330
 603.07;   17.559;   -3.816;    0.000;21.37408
 603.22;   47.079;    8.114;    0.000;38.96487
 603.38;   15.520;   -0.996;    0.000;16.51565
 603.53;   41.211;    2.714;    0.000;38.49643
 603.69;   16.432;   -3.545;    0.000;19.97722
 603.84;   43.943;    1.115;    0.000;42.82800
 604.00;    6.733;    1.555;    0.000; 5.17878
 604.15;   45.114;    4.985;    0.000;40.12956
 604.31;    9.795;    4.055;    0.000; 5.74035
 604.46;   45.046;    4.435;    0.000;40.61113
 604.62;    8.516;   -8.255;    0.000;16.77191
 604.77;   36.797;    6.165;    0.000;30.63269
 604.93;   13.998;    3.355;    0.000;10.64348
 605.08;   35.279;   -0.915;    0.000;36.19426
 605.24;   11.570;    3.835;    0.000; 7.73504
 605.39;   29.710;    6.825;    0.000;22.88583
 605.55;   10.971;   -4.855;    0.000;15.82661
 605.70;   36.912;    4.445;    0.000;32.46739
 605.86;   11.473;    0.775;    0.000;10.69817
 606.01;   35.574;   -1.135;    0.000;36.70896
 606.17;   11.374;    1.215;    0.000;10.15974
 606.32;   27.705;    4.675;    0.000;23.03052
 606.48;   11.346;    0.515;    0.000;10.83131
 606.63;   35.157;   -5.335;    0.000;40.49209
 606.79;    8.378;    4.775;    0.000; 3.60287
 606.94;   32.368;   12.265;    0.000;20.10365
 607.10;    5.749;    0.775;    0.000; 4.97444
 607.25;   33.960;    2.465;    0.000;31.49522
 607.41;   12.381;    5.935;    0.000; 6.44600
 607.56;   26.422;   -3.375;    0.000;29.79678
 607.72;    7.652;    5.335;    0.000; 2.31757
 607.87;   33.093;   -1.245;    0.000;34.33835
 608.03;   10.004;   -0.525;    0.000;10.52913
 608.18;   24.765;    5.265;    0.000;19.49992
 608.33;   10.035;    2.535;    0.000; 7.50070
 608.49;   30.586;    4.415;    0.000;26.17148
 608.64;    8.497;    2.125;    0.000; 6.37226
 608.80;   23.838;    7.565;    0.000;16.27305
 608.95;    7.619;   -4.105;    0.000;11.72383
 609.11;   33.069;    2.825;    0.000;30.24461
 609.26;    9.050;   -5.995;    0.000;15.04539
 609.42;   27.911;    5.755;    0.000;22.15618
 609.57;    0.292;   -3.195;    0.000; 3.48696
 609.73;   21.903;    5.975;    0.000;15.92774
 609.88;    6.843;   -3.735;    0.000;10.57853
 610.04;   23.094;    4.405;    0.000;18.68931
 610.19;    5.005;  -10.945;    0.000;15.95009
 610.35;   27.736;    1.525;    0.000;26.21087
 610.50;    8.607;    1.125;    0.000; 7.48166
 610.66;   21.217;   -3.275;    0.000;24.49244
 610.81;   16.748;   -0.095;    0.000;16.84322
 610.97;   24.629;    9.225;    0.000;15.40401
 611.12;    6.010;   -1.955;    0.000; 7.96479
 611.27;   31.311;   -0.045;    0.000;31.35557
 611.43;    6.101;   -1.135;    0.000; 7.23635
 611.58;   25.372;    0.145;    0.000;25.22714
 611.74;    9.583;    4.395;    0.000; 5.18792
 611.89;   22.604;    5.515;    0.000;17.08870
 612.05;  -16.606;  -29.285;    0.000;12.67948
 612.20;   47.445;   27.445;    0.000;20.00027
 612.36;   63.316;   59.295;    0.000; 4.02105
 612.51;   26.157;    4.255;    0.000;21.90183
 612.67;    7.138;    1.755;    0.000; 5.38262
 612.82;   28.978;    2.655;    0.000;26.32340
 612.98;    8.689;    1.055;    0.000; 7.63418
 613.13;   20.720;    0.505;    0.000;20.21496
 613.28;   12.941;    5.465;    0.000; 7.47575
 613.44;   17.712;    9.715;    0.000; 7.99653
 613.59;    8.672;    1.855;    0.000; 6.81731
 613.75;   23.303;    5.255;    0.000;18.04809
 613.90;    8.064;   -2.425;    0.000;10.48888
 614.06;   21.845;    5.165;    0.000;16.67966
 614.21;   10.586;    3.195;    0.000; 7.39044
 614.37;   15.136;   -2.605;    0.000;17.74123
 614.52;    8.127;    5.855;    0.000; 2.27201
 614.67;   23.338;    6.645;    0.000;16.69279
 614.83;    0.389;   -6.885;    0.000; 7.27357
 614.98;   25.880;    4.515;    0.000;21.36436
 615.14;    9.890;   -6.305;    0.000;16.19514
 615.29;   45.021;    1.545;    0.000;43.47592
 615.45;   29.522;   -0.955;    0.000;30.47671
 615.60;   34.503;   -4.295;    0.000;38.79749
 615.76;   13.773;   -6.625;    0.000;20.39827
 615.91;   64.564;   -0.085;    0.000;64.64905
 616.06;   48.035;    0.105;    0.000;47.92984
 616.22;   35.486;    2.395;    0.000;33.09062
 616.37;   -1.463;   -6.285;    0.000; 4.82140
 616.53;   21.607;    5.625;    0.000;15.98218
 616.68;    1.388;   -5.955;    0.000; 7.34297
 616.84;   20.389;    4.235;    0.000;16.15375
 616.99;    3.760;   -3.215;    0.000; 6.97453
 617.14;   19.931;    2.145;    0.000;17.78532
 617.30;    2.881;   -5.965;    0.000; 8.84610
 617.45;   24.282;   -0.895;    0.000;25.17688
 617.61;    8.633;    0.695;    0.000; 7.93766
 617.76;   19.984;    5.015;    0.000;14.96845
 617.92;    5.115;    1.045;    0.000; 4.06923
 618.07;   19.825;    4.745;    0.000;15.08001
 618.22;   -0.694;   -1.445;    0.000; 0.75079
 618.38;   18.327;    3.775;    0.000;14.55158
 618.53;    1.188;   -0.415;    0.000; 1.60236
 618.69;   16.009;    3.245;    0.000;12.76314
 618.84;    7.819;    1.425;    0.000; 6.39393
 619.00;   17.250;    6.105;    0.000;11.14471
 619.15;    8.131;   -1.115;    0.000; 9.24549
 619.30;   18.862;    4.645;    0.000;14.21627
 619.46;    2.832;    4.695;    0.000;-1.86294
 619.61;   20.013;    6.135;    0.000;13.87784
 619.77;    4.214;    1.455;    0.000; 2.75862
 619.92;   11.695;    4.915;    0.000; 6.77941
 620.08;    2.106;    3.405;    0.000;-1.29981
 620.23;   23.156;   -1.185;    0.000;24.34097
 620.38;    5.097;    3.575;    0.000; 1.52175
 620.54;   17.848;   -0.325;    0.000;18.17254
 620.69;    7.119;   -3.964;    0.000;11.08332
 620.85;   14.050;    2.516;    0.000;11.53410
 621.00;    4.990;   -1.774;    0.000; 6.76488
 621.15;   15.991;    0.456;    0.000;15.53567
 621.31;    6.682;    0.036;    0.000; 6.64645
 621.46;   20.503;    0.906;    0.000;19.59723
 621.62;    4.934;    1.996;    0.000; 2.93802
 621.77;   21.644;    2.106;    0.000;19.53880
 621.92;    9.075;    5.276;    0.000; 3.79958
 622.08;   11.156;   -0.634;    0.000;11.79036
 622.23;    3.907;    0.486;    0.000; 3.42115
 622.39;   17.138;    5.016;    0.000;12.12193
 622.54;    1.978;   -4.664;    0.000; 6.64271
 622.70;   18.239;    6.856;    0.000;11.38349
 622.85;    0.180;  -10.614;    0.000;10.79428
 623.00;   13.121;    4.966;    0.000; 8.15506
 623.16;   11.251;    0.206;    0.000;11.04584
 623.31;   12.302;   -3.844;    0.000;16.14663
 623.46;   -1.427;   -2.474;    0.000; 1.04741
 623.62;   14.024;    3.056;    0.000;10.96819
 623.77;   -3.595;   -0.144;    0.000;-3.45103
 623.93;   15.985;   -2.454;    0.000;18.43976
 624.08;   -0.114;   -0.124;    0.000; 0.01054
 624.23;   15.137;    4.896;    0.000;10.24132
 624.39;    3.308;   -8.874;    0.000;12.18210
 624.54;   12.339;    4.796;    0.000; 7.54289
 624.70;    1.779;    8.536;    0.000;-6.75633
 624.85;   16.280;   10.736;    0.000; 5.54445
 625.00;    2.671;   -0.564;    0.000; 3.23524
 625.16;   16.852;   -0.214;    0.000;17.06602
 625.31;    5.463;   -1.974;    0.000; 7.43680
 625.47;    8.573;   -2.074;    0.000;10.64758
 625.62;   -1.026;   -0.044;    0.000;-0.98163
 625.77;   14.035;    2.416;    0.000;11.61915
 625.93;    0.396;   -3.314;    0.000; 3.70993
 626.08;   -1.493;   -4.914;    0.000; 3.42072
 626.24;    3.997;    0.066;    0.000; 3.93150
 626.39;   11.838;    9.506;    0.000; 2.33228
 626.54;   -3.711;   -0.334;    0.000;-3.37694
 626.70;   23.500;   15.366;    0.000; 8.13385
 626.85;    2.870;    2.716;    0.000; 0.15463
 627.00;    7.731;   -0.094;    0.000; 7.82541
 627.16;    6.302;    3.716;    0.000; 2.58619
 627.31;   15.053;    1.976;    0.000;13.07698
 627.47;   -0.976;   -1.584;    0.000; 0.60776
 627.62;   16.194;   -3.064;    0.000;19.25854
 627.77;    0.485;   -0.244;    0.000; 0.72933
 627.93;   12.756;    6.436;    0.000; 6.32011
 628.08;    2.367;    1.596;    0.000; 0.77089
 628.23;   12.758;    2.146;    0.000;10.61167
 628.39;   -0.442;    9.376;    0.000;-9.81754
 628.54;    7.539;    0.566;    0.000; 6.97324
 628.70;    3.550;   -3.254;    0.000; 6.80402
 628.85;   13.011;    7.866;    0.000; 5.14480
 629.00;   -0.548;   -3.794;    0.000; 3.24559
 629.16;   22.182;    1.626;    0.000;20.55637
 629.31;    2.993;    4.056;    0.000;-1.06285
 629.46;    8.784;    6.866;    0.000; 1.91794
 629.62;    1.495;    4.366;    0.000;-2.87128
 629.77;   12.796;    0.596;    0.000;12.19950
 629.92;    3.956;   -5.724;    0.000; 9.68028
 630.08;    8.697;    5.276;    0.000; 3.42107
 630.23;    1.148;   -3.174;    0.000; 4.32185
 630.39;    4.779;    5.416;    0.000;-0.63737
 630.54;    5.260;    3.206;    0.000; 2.05342
 630.69;   15.580;   -4.104;    0.000;19.68420
 630.85;    4.751;    0.606;    0.000; 4.14498
 631.00;    9.012;   -0.204;    0.000; 9.21576
 631.15;    5.193;    7.136;    0.000;-1.94345
 631.31;   11.253;   -2.904;    0.000;14.15733
 631.46;    6.754;   -4.364;    0.000;11.11811
 631.61;   10.095;    4.486;    0.000; 5.60889
 631.77;   10.346;    1.936;    0.000; 8.40968
 631.92;   10.597;    6.526;    0.000; 4.07046
 632.07;   -1.583;    0.316;    0.000;-1.89876
 632.23;    8.498;   -2.494;    0.000;10.99203
 632.38;   -1.901;   -3.264;    0.000; 1.36281
 632.54;    4.300;    2.916;    0.000; 1.38359
 632.69;    1.331;   11.246;    0.000;-9.91563
 632.84;    3.281;    7.156;    0.000;-3.87484
 633.00;    3.222;    2.016;    0.000; 1.20594
 633.15;   11.153;   -5.404;    0.000;16.55672
 633.30;   -1.516;   -2.814;    0.000; 1.29750
 633.46;    8.375;    2.806;    0.000; 5.56829
 633.61;   -1.755;   -5.614;    0.000; 3.85907
 633.76;    8.616;    2.776;    0.000; 5.83985
 633.92;    6.697;    6.726;    0.000;-0.02936
 634.07;   12.828;    8.246;    0.000; 4.58142
 634.22;   -0.251;    0.506;    0.000;-0.75780
 634.38;   15.029;    8.246;    0.000; 6.78298
 634.53;   -3.430;    2.256;    0.000;-5.68623
 634.68;   -1.179;    8.726;    0.000;-9.90545
 634.84;   -1.818;   -1.724;    0.000;-0.09467
 634.99;   10.702;    8.466;    0.000; 2.23612
 635.14;   -0.247;    0.956;    0.000;-1.20310
 635.30;   17.704;    7.486;    0.000;10.21768
 635.45;   -2.075;   -2.794;    0.000; 0.71846
 635.60;   10.976;    1.426;    0.000; 9.54925
 635.76;    7.326;   -6.434;    0.000;13.76003
 635.91;    8.867;    5.396;    0.000; 3.47081
 636.06;   11.778;   -2.104;    0.000;13.88159
 636.22;   13.209;   -0.264;    0.000;13.47238
 636.37;    0.830;    1.236;    0.000;-0.40684
 636.52;    7.170;    3.406;    0.000; 3.76394
 636.68;   -0.109;   -0.454;    0.000; 0.34473
 636.83;   10.302;   -0.714;    0.000;11.01551
 636.98;    2.743;    3.226;    0.000;-0.48371
 637.14;    7.924;   10.806;    0.000;-2.88293
 637.29;    2.834;    2.916;    0.000;-0.08214
 637.44;   10.755;   -3.604;    0.000;14.35864
 637.60;   -0.734;   -0.973;    0.000; 0.23942
 637.75;   13.047;    4.317;    0.000; 8.73020
 637.90;    5.858;   -3.193;    0.000; 9.05099
 638.05;    8.368;   -0.103;    0.000; 8.47177
 638.21;    2.769;    1.807;    0.000; 0.96255
 638.36;    7.070;    1.787;    0.000; 5.28334
 638.51;    6.311;   -1.093;    0.000; 7.40412
 638.67;   10.801;   -0.213;    0.000;11.01490
 638.82;    5.542;    7.757;    0.000;-2.21432
 638.97;    1.983;    8.247;    0.000;-6.26353
 639.13;    5.144;    3.217;    0.000; 1.92725
 639.28;    4.945;   -1.373;    0.000; 6.31803
 639.43;    3.625;   -2.093;    0.000; 5.71881
 639.59;    3.626;    3.147;    0.000; 0.47960
 639.74;    3.487;    2.857;    0.000; 0.63038
 639.89;   11.018;   -1.593;    0.000;12.61116
 640.05;    7.229;    3.767;    0.000; 3.46195
 640.20;    5.259;    5.567;    0.000;-0.30727
 640.35;   -3.140;    0.077;    0.000;-3.21649
 640.50;    3.961;   14.397;    0.000;-10.43571
 640.66;    4.782;    1.867;    0.000; 2.91508
 640.81;    6.783;    0.367;    0.000; 6.41586
 640.96;    4.153;    0.297;    0.000; 3.85664
 641.12;    6.864;   -1.983;    0.000; 8.84743
 641.27;   -1.165;    5.767;    0.000;-6.93179
 641.42;   10.696;    6.687;    0.000; 4.00899
 641.58;    2.737;   -8.673;    0.000;11.40977
 641.73;   10.807;    0.937;    0.000; 9.87056
 641.88;   -0.722;   -2.593;    0.000; 1.87134
 642.03;    8.969;    5.037;    0.000; 3.93212
 642.19;   -2.130;   -3.153;    0.000; 1.02290
 642.34;    7.190;   -3.903;    0.000;11.09369
 642.49;   -0.679;   -1.653;    0.000; 0.97447
 642.65;    7.122;    1.967;    0.000; 5.15525
 642.80;   -1.377;    1.057;    0.000;-2.43396
 642.95;   10.864;   -5.233;    0.000;16.09682
 643.10;    9.704;   -1.673;    0.000;11.37760
 643.26;    4.335;    3.857;    0.000; 0.47838
 643.41;   -5.114;   -0.183;    0.000;-4.93083
 643.56;    9.757;   -1.413;    0.000;11.16995
 643.72;    5.128;    1.567;    0.000; 3.56073
 643.87;    1.978;   -3.293;    0.000; 5.27151
 644.02;    9.249;   -0.343;    0.000; 9.59230
 644.17;    2.350;    3.227;    0.000;-0.87692
 644.33;   -0.319;    0.617;    0.000;-0.93614
 644.48;    6.452;    1.447;    0.000; 5.00465
 644.63;    5.082;   -5.943;    0.000;11.02543
 644.79;    5.633;    2.767;    0.000; 2.86621
 644.94;    1.584;    1.187;    0.000; 0.39699
 645.09;    9.045;    5.187;    0.000; 3.85778
 645.24;   -3.444;   -1.503;    0.000;-1.94144
 645.40;    5.226;    0.707;    0.000; 4.51934
 645.55;   -5.403;   -6.473;    0.000; 1.07013
 645.70;   10.508;   -5.153;    0.000;15.66091
 645.86;    2.429;    0.227;    0.000; 2.20169
 646.01;   11.009;    5.017;    0.000; 5.99247
 646.16;   -1.170;   -1.283;    0.000; 0.11326
 646.31;   11.321;    7.117;    0.000; 4.20404
 646.47;    3.242;   -7.463;    0.000;10.70482
 646.62;    4.273;   -0.243;    0.000; 4.51560
 646.77;    0.663;   -3.153;    0.000; 3.81639
 646.92;    1.194;    2.797;    0.000;-1.60283
 647.08;    3.215;   -4.373;    0.000; 7.58795
 647.23;    8.916;    0.727;    0.000; 8.18874
 647.38;    4.697;    7.027;    0.000;-2.33048
 647.53;    2.367;    0.817;    0.000; 1.55030
 647.69;    1.868;    9.867;    0.000;-7.99892
 647.84;   -0.371;   -2.553;    0.000; 2.18187
 647.99;   -2.660;    0.847;    0.000;-3.50735
 648.15;   12.981;   -1.793;    0.000;14.77343
 648.30;    0.341;   -4.763;    0.000; 5.10421
 648.45;    5.012;   17.227;    0.000;-12.21500
 648.60;   -7.547;    4.467;    0.000;-12.01422
 648.76;    8.214;    3.757;    0.000; 4.45656
 648.91;    0.145;   -0.203;    0.000; 0.34735
 649.06;    5.605;    5.907;    0.000;-0.30187
 649.21;   -0.084;   -0.343;    0.000; 0.25891
 649.37;    0.967;   -3.133;    0.000; 4.09969
 649.52;   -2.822;   -5.313;    0.000; 2.49048
 649.67;    9.208;    7.207;    0.000; 2.00126
 649.82;    3.869;   -1.783;    0.000; 5.65204
 649.98;    4.480;    1.237;    0.000; 3.24283
 650.13;    2.801;   -4.013;    0.000; 6.81361
 650.28;    9.072;    6.737;    0.000; 2.33439
 650.43;    2.342;    0.467;    0.000; 1.87517
 650.59;    4.073;    0.617;    0.000; 3.45596
 650.74;    0.764;   -3.573;    0.000; 4.33674
 650.89;    0.435;    1.567;    0.000;-1.13248
 651.04;   -1.124;   -0.063;    0.000;-1.06170
 651.20;   -0.284;    6.077;    0.000;-6.36091
 651.35;   -4.943;    6.287;    0.000;-11.23013
 651.50;    4.278;    5.317;    0.000;-1.03935
 651.65;   -6.801;    4.527;    0.000;-11.32856
 651.81;    3.700;    5.357;    0.000;-1.65778
 651.96;    2.100;   -0.723;    0.000; 2.82300
 652.11;   13.481;   -0.783;    0.000;14.26378
 652.26;   -2.958;    1.827;    0.000;-4.78543
 652.41;    7.583;    4.477;    0.000; 3.10535
 652.57;    2.794;    1.217;    0.000; 1.57613
 652.72;   -1.226;    5.167;    0.000;-6.39309
 652.87;   -5.795;   -0.083;    0.000;-5.71230
 653.02;    6.006;    9.367;    0.000;-3.36152
 653.18;   -4.043;    1.447;    0.000;-5.49074
 653.33;    2.177;    5.127;    0.000;-2.94995
 653.48;   -2.672;   -6.983;    0.000; 4.31083
 653.63;   10.319;    3.717;    0.000; 6.60161
 653.79;    1.480;    0.687;    0.000; 0.79239
 653.94;    4.751;   -0.313;    0.000; 5.06318
 654.09;    0.011;    0.827;    0.000;-0.81604
 654.24;    2.692;   -3.223;    0.000; 5.91474
 654.39;   -0.997;   -6.262;    0.000; 5.26553
 654.55;    7.074;    3.828;    0.000; 3.24631
 654.70;    1.625;   -2.042;    0.000; 3.66709
 654.85;    6.305;   -1.642;    0.000; 7.94787
 655.00;   -5.634;    7.168;    0.000;-12.80134
 655.16;    0.667;    6.648;    0.000;-5.98056
 655.31;    4.528;   -3.442;    0.000; 7.97022
 655.46;    1.909;   -4.352;    0.000; 6.26100
 655.61;   -0.471;   -1.632;    0.000; 1.16179
 655.76;   10.070;    1.758;    0.000; 8.31257
 655.92;    6.501;   -4.642;    0.000;11.14335
 656.07;    8.242;    5.738;    0.000; 2.50414
 656.22;    7.613;    7.178;    0.000; 0.43492
 656.37;    2.683;    3.348;    0.000;-0.66430
 656.53;   -0.426;   -9.142;    0.000; 8.71648
 656.68;    7.885;    1.388;    0.000; 6.49727
 656.83;    5.436;   -5.492;    0.000;10.92805
 656.98;    3.716;   -0.332;    0.000; 4.04883
 657.13;    2.937;   -2.682;    0.000; 5.61961
 657.29;    5.938;   -3.672;    0.000; 9.61040
 657.44;    3.369;   -9.692;    0.000;13.06118
 657.59;    4.030;    0.608;    0.000; 3.42196
 657.74;    2.030;   -0.032;    0.000; 2.06275
 657.89;    5.761;    6.398;    0.000;-0.63647
 658.05;   11.172;    0.958;    0.000;10.21431
 658.20;    6.663;    7.618;    0.000;-0.95491
 658.35;    0.514;   -0.582;    0.000; 1.09588
 658.50;    6.224;    2.848;    0.000; 3.37666
 658.65;   -2.175;   -3.142;    0.000; 0.96744
 658.81;    0.306;    2.318;    0.000;-2.01178
 658.96;   -1.753;   -5.602;    0.000; 3.84901
 659.11;    7.068;    7.438;    0.000;-0.37021
 659.26;    8.358;    4.408;    0.000; 3.95057
 659.41;    2.739;   -3.552;    0.000; 6.29136
 659.57;   -6.070;   -2.722;    0.000;-3.34786
 659.72;    0.151;    2.208;    0.000;-2.05708
 659.87;   -0.418;   -4.522;    0.000; 4.10370
 660.02;    5.622;    9.568;    0.000;-3.94551
 660.17;   -0.497;    0.238;    0.000;-0.73473
 660.33;    2.874;    6.668;    0.000;-3.79395
 660.48;    7.565;   -0.852;    0.000; 8.41684
 660.63;    9.135;   -1.062;    0.000;10.19762
 660.78;    2.286;    1.378;    0.000; 0.90840
 660.93;    5.407;    7.308;    0.000;-1.90082
 661.09;    2.788;    3.138;    0.000;-0.35003
 661.24;   -1.051;    5.528;    0.000;-6.57925
 661.39;   -2.261;   -2.812;    0.000; 0.55153
 661.54;   -0.150;    1.988;    0.000;-2.13769
 661.69;    0.571;    1.818;    0.000;-1.24690
 661.84;   -0.868;   -2.392;    0.000; 1.52388
 662.00;   -7.717;    3.538;    0.000;-11.25534
 662.15;    2.853;    0.838;    0.000; 2.01545
 662.30;    0.904;   -5.072;    0.000; 5.97623
 662.45;    9.925;    5.938;    0.000; 3.98701
 662.60;    0.456;    3.768;    0.000;-3.31221
 662.76;    1.537;   -4.052;    0.000; 5.58858
 662.91;    3.447;    6.798;    0.000;-3.35064
 663.06;    2.818;   -0.342;    0.000; 3.16014
 663.21;   10.569;    4.688;    0.000; 5.88092
 663.36;    1.580;   -5.972;    0.000; 7.55171
 663.51;    2.661;   -1.152;    0.000; 3.81249
 663.67;    1.241;   -1.412;    0.000; 2.65327
 663.82;    2.272;    6.638;    0.000;-4.36594
 663.97;    4.563;    5.338;    0.000;-0.77516
 664.12;    4.184;    5.748;    0.000;-1.56438
 664.27;    5.175;    1.218;    0.000; 3.95640
 664.42;   -2.775;    4.738;    0.000;-7.51281
 664.58;    8.396;    1.888;    0.000; 6.50797
 664.73;   -0.173;   -1.782;    0.000; 1.60875
 664.88;    4.638;    1.948;    0.000; 2.68954
 665.03;   -7.102;   -4.432;    0.000;-2.66968
 665.18;    1.689;    5.938;    0.000;-4.24890
 665.33;    3.090;    2.648;    0.000; 0.44188
 665.49;    5.441;    1.258;    0.000; 4.18267
 665.64;   -2.128;    4.918;    0.000;-7.04655
 665.79;   -1.138;   -0.562;    0.000;-0.57577
 665.94;    9.343;    3.188;    0.000; 6.15501
 666.09;   11.254;    0.918;    0.000;10.33580
 666.24;    0.145;   -6.982;    0.000; 7.12658
 666.40;    5.866;    5.228;    0.000; 0.63736
 666.55;    7.796;   -0.382;    0.000; 8.17815
 666.70;    3.537;    9.168;    0.000;-5.63107
 666.85;   -0.032;    6.768;    0.000;-6.80029
 667.00;    4.139;   -2.382;    0.000; 6.52049
 667.15;   -1.340;   -1.232;    0.000;-0.10872
 667.30;    1.050;    2.668;    0.000;-1.61794
 667.46;    0.211;   -3.522;    0.000; 3.73284
 667.61;    3.572;   -2.642;    0.000; 6.21362
 667.76;    6.113;   -2.762;    0.000; 8.87441
 667.91;   -3.416;   -5.022;    0.000; 1.60519
 668.06;   -6.496;   -6.502;    0.000; 0.00597
 668.21;    6.705;    1.708;    0.000; 4.99676
 668.36;   -0.864;    6.278;    0.000;-7.14246
 668.52;    4.417;   -2.942;    0.000; 7.35832
 668.67;    0.047;   -1.882;    0.000; 1.92910
 668.82;    2.718;    6.728;    0.000;-4.01011
 668.97;    3.819;   -4.102;    0.000; 7.92067
 669.12;    3.130;    2.348;    0.000; 0.78145
 669.27;   -0.039;    1.408;    0.000;-1.44776
 669.42;    0.681;    4.118;    0.000;-3.43698
 669.58;   -2.658;   -6.522;    0.000; 3.86380
 669.73;   -2.917;    2.278;    0.000;-5.19542
 669.88;    2.204;   -5.262;    0.000; 7.46537
 670.03;   -1.905;   -0.752;    0.000;-1.15385
 670.18;    1.525;    2.898;    0.000;-1.37307
 670.33;   -3.034;    5.638;    0.000;-8.67229
 670.48;   -3.393;   -2.882;    0.000;-0.51150
 670.64;    9.408;    1.518;    0.000; 7.88928
 670.79;   -6.481;    0.518;    0.000;-6.99994
 670.94;    9.519;   -2.472;    0.000;11.99085
 671.09;    0.350;   -0.311;    0.000; 0.66163
 671.24;    9.541;    0.679;    0.000; 8.86241
 671.39;   -0.118;    2.019;    0.000;-2.13681
 671.54;   -2.117;   14.229;    0.000;-16.34602
 671.69;    2.523;    4.279;    0.000;-1.75524
 671.85;    3.984;    5.939;    0.000;-1.95446
 672.00;   -1.945;    4.909;    0.000;-6.85368
 672.15;   -9.024;    6.089;    0.000;-15.11289
 672.30;    1.716;   -2.661;    0.000; 4.37789
 672.45;   10.117;    4.189;    0.000; 5.92867
 672.60;    1.578;    1.119;    0.000; 0.45946
 672.75;    4.319;    1.959;    0.000; 2.36024
 672.90;   -1.190;   -5.191;    0.000; 4.00102
 673.06;    8.200;    0.829;    0.000; 7.37180
 673.21;    1.761;    0.279;    0.000; 1.48259
 673.36;   -5.848;    4.029;    0.000;-9.87663
 673.51;    1.143;   -3.521;    0.000; 4.66415
 673.66;   -4.276;    4.599;    0.000;-8.87507
 673.81;    0.874;    5.749;    0.000;-4.87428
 673.96;    6.785;    8.119;    0.000;-1.33350
 674.11;   -2.324;    0.239;    0.000;-2.56272
 674.26;    3.677;    2.049;    0.000; 1.62807
 674.42;    3.708;   -2.031;    0.000; 5.73885
 674.57;    0.668;    9.599;    0.000;-8.93037
 674.72;   -1.591;   -4.891;    0.000; 3.30041
 674.87;    5.580;    2.859;    0.000; 2.72120
 675.02;    7.051;   -5.321;    0.000;12.37198
 675.17;    6.552;    2.539;    0.000; 4.01276
 675.32;   -2.078;   -2.281;    0.000; 0.20355
 675.47;    5.503;    1.889;    0.000; 3.61433
 675.62;   -0.916;    1.699;    0.000;-2.61489
 675.77;   -0.865;    6.699;    0.000;-7.56411
 675.93;   -0.925;    0.429;    0.000;-1.35332
 676.08;    5.776;   -2.481;    0.000; 8.25746
 676.23;    0.427;   -4.881;    0.000; 5.30824
 676.38;   -0.162;   -1.031;    0.000; 0.86902
 676.53;    5.759;    0.739;    0.000; 5.01981
 676.68;    7.939;    3.179;    0.000; 4.76059
 676.83;    3.140;   -2.791;    0.000; 5.93137
 676.98;    3.541;    1.899;    0.000; 1.64216
 677.13;    0.502;    4.819;    0.000;-4.31706
 677.28;   -3.337;    3.519;    0.000;-6.85628
 677.44;   -1.927;    4.679;    0.000;-6.60550
 677.59;   -1.616;    2.679;    0.000;-4.29471
 677.74;   -1.755;    1.769;    0.000;-3.52393
 677.89;    2.436;    3.279;    0.000;-0.84315
 678.04;   -2.403;    3.739;    0.000;-6.14237
 678.19;    0.137;    2.749;    0.000;-2.61158
 678.34;   -3.852;    2.439;    0.000;-6.29080
 678.49;   -0.091;   -3.651;    0.000; 3.55998
 678.64;    3.770;    4.799;    0.000;-1.02923
 678.79;    9.581;    0.529;    0.000; 9.05155
 678.94;   -0.099;    2.699;    0.000;-2.79767
 679.09;    2.902;   -1.281;    0.000; 4.18311
 679.25;   -1.337;   -4.781;    0.000; 3.44390
 679.40;   -0.996;    7.819;    0.000;-8.81532
 679.55;    3.084;   -2.841;    0.000; 5.92546
 679.70;    2.175;    3.299;    0.000;-1.12375
 679.85;    1.576;    3.619;    0.000;-2.04297
 680.00;    7.567;    9.039;    0.000;-1.47219
 680.15;    2.438;   -0.101;    0.000; 2.53859
 680.30;    5.038;    4.459;    0.000; 0.57938
 680.45;   -0.801;   -0.281;    0.000;-0.51984
 680.60;    1.420;    4.149;    0.000;-2.72906
 680.75;   -5.609;    5.399;    0.000;-11.00828
 680.90;    6.942;   -0.581;    0.000; 7.52251
 681.05;   -1.218;   -2.151;    0.000; 0.93329
 681.21;    9.803;    3.299;    0.000; 6.50407
 681.36;    2.774;    0.359;    0.000; 2.41486
 681.51;    4.215;    6.179;    0.000;-1.96436
 681.66;    0.176;   -3.961;    0.000; 4.13642
 681.81;    1.636;    3.949;    0.000;-2.31280
 681.96;   -3.943;    3.369;    0.000;-7.31201
 682.11;   -1.702;    1.049;    0.000;-2.75123
 682.26;    6.899;   -2.311;    0.000; 9.20955
 682.41;    2.020;    2.079;    0.000;-0.05967
 682.56;    1.330;    8.469;    0.000;-7.13888
 682.71;    1.631;    3.419;    0.000;-1.78810
 682.86;   -5.548;    3.299;    0.000;-8.84732
 683.01;    4.623;    4.559;    0.000; 0.06347
 683.16;   -4.017;    0.099;    0.000;-4.11575
 683.31;    3.174;   -1.741;    0.000; 4.91503
 683.46;   -1.465;   -0.061;    0.000;-1.40419
 683.61;    6.376;    6.439;    0.000;-0.06340
 683.77;   -3.073;   -3.561;    0.000; 0.48738
 683.92;    2.597;    1.429;    0.000; 1.16816
 684.07;    9.788;    5.859;    0.000; 3.92895
 684.22;    7.039;    3.959;    0.000; 3.07973
 684.37;   -3.200;   -0.221;    0.000;-2.97949
 684.52;   -5.989;    1.459;    0.000;-7.44871
 684.67;    1.591;    1.679;    0.000;-0.08792
 684.82;   -1.948;   -0.791;    0.000;-1.15714
 684.97;    4.773;    2.479;    0.000; 2.29364
 685.12;    4.904;    7.389;    0.000;-2.48558
 685.27;    2.285;    3.069;    0.000;-0.78479
 685.42;    1.305;   -0.751;    0.000; 2.05599
 685.57;   -7.134;   -2.821;    0.000;-4.31323
 685.72;    1.907;    3.809;    0.000;-1.90244
 685.87;   -1.302;   -0.681;    0.000;-0.62166
 686.02;   -1.721;   10.869;    0.000;-12.59088
 686.17;    6.579;   -9.241;    0.000;15.81990
 686.32;    0.900;    7.489;    0.000;-6.58931
 686.47;   -1.159;   -0.281;    0.000;-0.87853
 686.62;    2.432;    1.879;    0.000; 0.55225
 686.77;    3.862;    5.479;    0.000;-1.61697
 686.92;   10.423;    2.339;    0.000; 8.08382
 687.08;    2.584;    2.399;    0.000; 0.18460
 687.23;    5.655;    3.909;    0.000; 1.74538
 687.38;    1.706;    1.039;    0.000; 0.66617
 687.53;    0.126;    2.559;    0.000;-2.43305
 687.68;    3.677;   -1.870;    0.000; 5.54773
 687.83;    3.078;    5.780;    0.000;-2.70149
 687.98;    4.689;    4.400;    0.000; 0.28930
 688.13;    2.610;    5.830;    0.000;-3.21992
 688.28;    2.420;    3.780;    0.000;-1.35914
 688.43;    3.591;    2.890;    0.000; 0.70164
 688.58;   -1.748;    4.640;    0.000;-6.38757
 688.73;    4.313;    3.370;    0.000; 0.94321
 688.88;   -4.176;   -0.030;    0.000;-4.14601
 689.03;   12.624;    1.680;    0.000;10.94478
 689.18;   -0.625;    3.810;    0.000;-4.43444
 689.33;    6.256;    1.150;    0.000; 5.10634
 689.48;    5.857;    1.190;    0.000; 4.66712
 689.63;    7.208;    4.050;    0.000; 3.15791
 689.78;    1.528;   -2.310;    0.000; 3.83869
 689.93;    2.059;   -5.300;    0.000; 7.35947
 690.08;    0.870;    3.750;    0.000;-2.87974
 690.23;    2.551;    2.260;    0.000; 0.29104
 690.38;    2.981;   -0.200;    0.000; 3.18182
 690.53;    6.462;    0.810;    0.000; 5.65260
 690.68;   -1.987;   -2.520;    0.000; 0.53339
 690.83;    3.074;    2.820;    0.000; 0.25417
 690.98;    1.215;    0.820;    0.000; 0.39495
 691.13;    7.925;   -7.200;    0.000;15.12573
 691.28;   -2.404;   -0.200;    0.000;-2.20348
 691.43;   -2.953;    6.100;    0.000;-9.05270
 691.58;   -7.342;    1.060;    0.000;-8.40192
 691.73;    4.039;    2.690;    0.000; 1.34887
 691.88;    6.999;   -1.450;    0.000; 8.44965
 692.03;    3.030;    3.770;    0.000;-0.73957
 692.18;    9.911;    4.800;    0.000; 5.11121
 692.33;   -0.008;   11.020;    0.000;-11.02800
 692.48;    3.583;    3.940;    0.000;-0.35722
 692.63;    4.973;    8.000;    0.000;-3.02644
 692.78;   -0.246;    2.530;    0.000;-2.77566
 692.93;   -4.565;   -2.740;    0.000;-1.82487
 693.08;    2.116;    0.700;    0.000; 1.41591
 693.23;    5.567;   -0.790;    0.000; 6.35669
 693.38;   -3.893;   -0.140;    0.000;-3.75252
 693.53;    8.628;    2.010;    0.000; 6.61826
 693.68;    2.729;    2.580;    0.000; 0.14904
 693.83;    8.900;    5.140;    0.000; 3.75982
 693.98;    3.490;   -3.540;    0.000; 7.03061
 694.13;    7.961;    5.100;    0.000; 2.86139
 694.28;    1.682;   -5.390;    0.000; 7.07217
 694.43;    1.103;   -2.120;    0.000; 3.22296
 694.58;   -2.646;    9.020;    0.000;-11.66626
 694.73;    5.764;    9.160;    0.000;-3.39548
 694.88;    1.925;   -3.260;    0.000; 5.18530
 695.03;   -0.184;    6.430;    0.000;-6.61391
 695.18;    3.327;   -1.110;    0.000; 4.43687
 695.33;    3.448;   -2.830;    0.000; 6.27765
 695.48;    4.408;   -3.310;    0.000; 7.71843
 695.63;    7.429;    3.550;    0.000; 3.87922
 695.78;    6.510;    3.270;    0.000; 3.24000
 695.93;    7.180;    3.580;    0.000; 3.60000
 696.08;   19.420;    1.530;    0.000;17.89000
 696.23;  126.110;    6.180;    0.000;119.93000
 696.38;  441.980;   -0.500;    0.000;442.48000
 696.53;  350.230;    3.420;    0.000;346.81000
 696.68;  122.230;   -2.000;    0.000;124.23000
 696.83;   44.990;    9.150;    0.000;35.84000
 696.98;   11.400;   -2.810;    0.000;14.21000
 697.13;    9.770;    8.100;    0.000; 1.67000
 697.28;   -2.180;    1.070;    0.000;-3.25000
 697.43;    2.730;    7.380;    0.000;-4.65000
 697.58;   -1.080;   -1.270;    0.000; 0.19000
 697.73;    7.850;    4.080;    0.000; 3.77000
 697.88;    6.670;    1.440;    0.000; 5.23000
 698.03;    2.880;    2.990;    0.000;-0.11000
 698.18;   -6.680;    4.140;    0.000;-10.82000
 698.32;    2.820;    5.690;    0.000;-2.87000
 698.47;    5.220;   -2.250;    0.000; 7.47000
 698.62;    3.740;    2.490;    0.000; 1.25000
 698.77;   -1.410;    1.240;    0.000;-2.65000
 698.92;    3.220;    0.820;    0.000; 2.40000
 699.07;   -2.220;   -4.660;    0.000; 2.44000
 699.22;   -0.610;   10.610;    0.000;-11.22000
 699.37;    4.850;   -3.400;    0.000; 8.25000
 699.52;   -5.880;    6.090;    0.000;-11.97000
 699.67;    1.240;    5.540;    0.000;-4.30000
 699.82;    4.970;    3.230;    0.000; 1.74000
 699.97;   -6.920;   -5.400;    0.000;-1.52000
 700.12;    5.750;    9.790;    0.000;-4.04000
 700.27;    2.770;    7.470;    0.000;-4.70000
 700.42;    4.680;    0.320;    0.000; 4.36000
 700.57;   -7.570;    3.200;    0.000;-10.77000
 700.72;    4.210;    9.950;    0.000;-5.74000
 700.87;   -6.970;   -8.110;    0.000; 1.14000
 701.02;    2.950;    9.950;    0.000;-7.00000
 701.17;    1.720;   -3.320;    0.000; 5.04000
 701.32;   -2.220;    2.980;    0.000;-5.20000
 701.47;   -0.530;    4.060;    0.000;-4.59000
 701.61;    4.290;   11.390;    0.000;-7.10000
 701.76;   -2.920;   -2.220;    0.000;-0.70000
 701.91;   -0.720;    8.550;    0.000;-9.27000
 702.06;    0.130;   -6.590;    0.000; 6.72000
 702.21;    3.720;    2.790;    0.000; 0.93000
 702.36;    3.780;   -0.230;    0.000; 4.01000
 702.51;   -3.440;    4.450;    0.000;-7.89000
 702.66;   12.070;   -0.380;    0.000;12.45000
 702.81;    7.640;    8.370;    0.000;-0.73000
 702.96;    8.110;   -3.210;    0.000;11.32000
 703.11;    3.080;    6.810;    0.000;-3.73000
 703.26;    6.240;   -5.930;    0.000;12.17000
 703.41;   -3.790;    5.330;    0.000;-9.12000
 703.56;   -3.220;    7.620;    0.000;-10.84000
 703.71;    2.780;    3.900;    0.000;-1.12000
 703.86;   -2.040;    5.410;    0.000;-7.45000
 704.01;   -2.240;    5.820;    0.000;-8.06000
 704.15;    0.270;    1.890;    0.000;-1.62000
 704.30;    5.760;    6.690;    0.000;-0.93000
 704.45;   -3.090;   -6.330;    0.000; 3.24000
 704.60;    9.990;   -0.610;    0.000;10.60000
 704.75;   -2.120;    2.590;    0.000;-4.71000
 704.90;    5.550;    7.510;    0.000;-1.96000
 705.05;   -5.700;    2.200;    0.000;-7.90000
 705.20;    5.870;   -0.470;    0.000; 6.34000
 705.35;   -2.240;    2.700;    0.000;-4.94000
 705.50;    6.000;   -3.430;    0.000; 9.43000
 705.65;   -1.740;    5.060;    0.000;-6.80000
 705.80;   -1.950;    3.160;    0.000;-5.11000
 705.95;   -0.330;   -1.730;    0.000; 1.40000
 706.09;    4.700;   -0.040;    0.000; 4.74000
 706.24;   16.730;   -2.120;    0.000;18.85000
 706.39;   73.730;    2.670;    0.000;71.06000
 706.54;  270.860;    1.440;    0.000;269.42000
 706.69;  246.620;    8.180;    0.000;238.44000
 706.84;   84.500;    0.490;    0.000;84.01000
 706.99;   32.400;    0.410;    0.000;31.99000
 707.14;    9.710;    0.040;    0.000; 9.67000
 707.29;    7.860;    5.520;    0.000; 2.34000
 707.44;    2.750;   -2.550;    0.000; 5.30000
 707.59;    2.520;   -1.720;    0.000; 4.24000
 707.73;   -8.910;   -6.870;    0.000;-2.04000
 707.88;    1.300;    4.560;    0.000;-3.26000
 708.03;   -0.260;    7.360;    0.000;-7.62000
 708.18;   -1.820;    1.260;    0.000;-3.08000
 708.33;   -9.510;   -3.730;    0.000;-5.78000
 708.48;    1.650;    7.920;    0.000;-6.27000
 708.63;    3.310;    0.270;    0.000; 3.04000
 708.78;    2.500;   -1.270;    0.000; 3.77000
 708.93;    1.330;   11.850;    0.000;-10.52000
 709.08;    2.810;    0.280;    0.000; 2.53000
 709.23;    5.470;    3.280;    0.000; 2.19000
 709.37;   -4.660;    3.800;    0.000;-8.46000
 709.52;   -5.260;    1.480;    0.000;-6.74000
 709.67;    6.080;    6.380;    0.000;-0.30000
 709.82;    8.000;   -0.860;    0.000; 8.86000
 709.97;   -0.430;    5.540;    0.000;-5.97000
 710.12;   -2.810;    2.040;    0.000;-4.85000
 710.27;    5.320;   -4.950;    0.000;10.27000
 710.42;   -5.030;    6.480;    0.000;-11.51000
 710.57;   -4.240;    9.330;    0.000;-13.57000
 710.71;   -1.270;    6.040;    0.000;-7.31000
 710.86;    3.870;   -0.200;    0.000; 4.07000
 711.01;   -3.150;    3.290;    0.000;-6.44000
 711.16;    1.990;    3.150;    0.000;-1.16000
 711.31;    0.080;   -4.160;    0.000; 4.24000
 711.46;    4.710;    0.010;    0.000; 4.70000
 711.61;   -4.790;   -1.030;    0.000;-3.76000
 711.76;    0.690;    1.380;    0.000;-0.69000
 711.91;   -5.330;    1.970;    0.000;-7.30000
 712.05;   -5.550;    2.840;    0.000;-8.39000
 712.20;    5.340;    4.290;    0.000; 1.05000
 712.35;    7.840;   -1.010;    0.000; 8.85000
 712.50;   -3.030;    8.150;    0.000;-11.18000
 712.65;   -1.270;    4.550;    0.000;-5.82000
 712.80;    6.170;    1.260;    0.000; 4.91000
 712.95;    5.330;   10.160;    0.000;-4.83000
 713.10;   -8.700;    3.620;    0.000;-12.32000
 713.24;    0.610;   -0.180;    0.000; 0.79000
 713.39;    3.610;    0.080;    0.000; 3.53000
 713.54;    3.660;    3.670;    0.000;-0.01000
 713.69;    1.200;   -2.700;    0.000; 3.90000
 713.84;   -1.550;    8.690;    0.000;-10.24000
 713.99;   -4.670;    4.930;    0.000;-9.60000
 714.14;    4.380;    6.680;    0.000;-2.30000
 714.29;    3.030;    1.860;    0.000; 1.17000
 714.43;   14.680;    3.510;    0.000;11.17000
 714.58;   41.930;    0.840;    0.000;41.09000
 714.73;   21.000;   -4.980;    0.000;25.98000
 714.88;    3.500;    2.940;    0.000; 0.56000
 715.03;    5.030;   -2.700;    0.000; 7.73000
 715.18;    2.460;   -3.600;    0.000; 6.06000
 715.33;    1.940;   -0.070;    0.000; 2.01000
 715.47;    3.450;   -0.110;    0.000; 3.56000
 715.62;    5.650;    3.080;    0.000; 2.57000
 715.77;    0.880;   -2.990;    0.000; 3.87000
 715.92;   -0.450;    4.320;    0.000;-4.77000
 716.07;    4.090;    1.690;    0.000; 2.40000
 716.22;   -0.380;   -3.710;    0.000; 3.33000
 716.37;   -0.330;   -6.290;    0.000; 5.96000
 716.51;    1.020;    6.800;    0.000;-5.78000
 716.66;    0.480;    2.380;    0.000;-1.90000
 716.81;    3.420;   10.130;    0.000;-6.71000
 716.96;    6.230;    6.560;    0.000;-0.33000
 717.11;    6.480;   -0.850;    0.000; 7.33000
 717.26;   -0.590;   -2.400;    0.000; 1.81000
 717.41;    0.560;    1.140;    0.000;-0.58000
 717.55;   -2.840;   -6.270;    0.000; 3.43000
 717.70;   -0.930;    3.420;    0.000;-4.35000
 717.85;   -3.450;   -0.540;    0.000;-2.91000
 718.00;    1.650;   -1.160;    0.000; 2.81000
 718.15;    1.460;    5.990;    0.000;-4.53000
 718.30;   -1.000;    1.220;    0.000;-2.22000
 718.44;    0.800;   -2.600;    0.000; 3.40000
 718.59;   -2.280;    0.390;    0.000;-2.67000
 718.74;   -1.200;    2.990;    0.000;-4.19000
 718.89;    4.910;    3.040;    0.000; 1.87000
 719.04;   -2.300;    1.700;    0.000;-4.00000
 719.19;    3.740;   -1.190;    0.000; 4.93000
 719.33;   -1.320;   -2.350;    0.000; 1.03000
 719.48;    2.300;    6.600;    0.000;-4.30000
 719.63;    0.900;    8.490;    0.000;-7.59000
 719.78;   -0.650;    1.070;    0.000;-1.72000
 719.93;    6.880;    3.670;    0.000; 3.21000
 720.08;    0.030;    5.320;    0.000;-5.29000
 720.22;    2.790;   -2.080;    0.000; 4.87000
 720.37;    5.140;   -3.930;    0.000; 9.07000
 720.52;   -7.030;   -1.990;    0.000;-5.04000
 720.67;    4.150;    5.300;    0.000;-1.15000
 720.82;   -0.080;    1.880;    0.000;-1.96000
 720.97;    1.660;   -0.920;    0.000; 2.58000
 721.11;   -3.170;    4.700;    0.000;-7.87000
 721.26;    4.350;    4.430;    0.000;-0.08000
 721.41;   -1.930;    3.910;    0.000;-5.84000
 721.56;    2.750;    9.020;    0.000;-6.27000
 721.71;   -1.990;   -3.840;    0.000; 1.85000
 721.86;    2.960;    0.160;    0.000; 2.80000
 722.00;    6.720;   -3.690;    0.000;10.41000
 722.15;   -2.150;    9.180;    0.000;-11.33000
 722.30;   -5.340;   -4.810;    0.000;-0.53000
 722.45;   -2.200;   -2.360;    0.000; 0.16000
 722.60;   -2.790;    5.470;    0.000;-8.26000
 722.74;    7.700;   -0.920;    0.000; 8.62000
 722.89;   -5.960;   -0.160;    0.000;-5.80000
 723.04;   -5.830;    7.480;    0.000;-13.31000
 723.19;    1.640;    2.310;    0.000;-0.67000
 723.34;   -0.570;   -1.690;    0.000; 1.12000
 723.49;   -1.640;   12.610;    0.000;-14.25000
 723.63;    2.200;    1.700;    0.000; 0.50000
 723.78;   -2.660;   -8.630;    0.000; 5.97000
 723.93;   -1.460;    0.800;    0.000;-2.26000
 724.08;    1.640;   -3.130;    0.000; 4.77000
 724.23;    2.090;   -2.650;    0.000; 4.74000
 724.37;   -6.220;   -7.260;    0.000; 1.04000
 724.52;   -1.710;    2.750;    0.000;-4.46000
 724.67;    1.050;    0.330;    0.000; 0.72000
 724.82;   -4.460;    9.040;    0.000;-13.50000
 724.97;    5.860;   -1.450;    0.000; 7.31000
 725.11;   -1.970;   -0.950;    0.000;-1.02000
 725.26;   -2.910;    0.030;    0.000;-2.94000
 725.41;    1.600;    5.400;    0.000;-3.80000
 725.56;   -0.860;    2.830;    0.000;-3.69000
 725.71;   -1.640;    9.190;    0.000;-10.83000
 725.85;   -1.900;    0.750;    0.000;-2.65000
 726.00;   -2.620;    4.970;    0.000;-7.59000
 726.15;    2.180;   -6.880;    0.000; 9.06000
 726.30;    5.400;    2.650;    0.000; 2.75000
 726.45;    3.240;    0.250;    0.000; 2.99000
 726.59;    7.430;    6.130;    0.000; 1.30000
 726.74;   -3.430;   -5.870;    0.000; 2.44000
 726.89;   11.320;    2.950;    0.000; 8.37000
 727.04;   53.910;    0.580;    0.000;53.33000
 727.18;   92.480;    4.970;    0.000;87.51000
 727.33;   39.020;   -9.270;    0.000;48.29000
 727.48;   15.650;    9.800;    0.000; 5.85000
 727.63;    3.760;   -5.300;    0.000; 9.06000
 727.78;    2.390;   -1.020;    0.000; 3.41000
 727.92;   -1.720;   -2.160;    0.000; 0.44000
 728.07;    2.100;    2.320;    0.000;-0.22000
 728.22;   -9.470;   -3.380;    0.000;-6.09000
 728.37;   -4.600;    5.040;    0.000;-9.64000
 728.52;   -0.130;   -3.150;    0.000; 3.02000
 728.66;    5.100;    2.330;    0.000; 2.77000
 728.81;    7.810;   -5.040;    0.000;12.85000
 728.96;    3.210;    2.960;    0.000; 0.25000
 729.11;   -0.900;   -4.570;    0.000; 3.67000
 729.25;   -5.140;    0.920;    0.000;-6.06000
 729.40;    0.240;   -7.550;    0.000; 7.79000
 729.55;    0.580;    5.500;    0.000;-4.92000
 729.70;   -1.680;   -2.100;    0.000; 0.42000
 729.84;    7.930;    6.350;    0.000; 1.58000
 729.99;    1.110;    0.760;    0.000; 0.35000
 730.14;   -1.580;    4.680;    0.000;-6.26000
 730.29;   -4.040;   -0.950;    0.000;-3.09000
 730.44;   -1.550;   -3.160;    0.000; 1.61000
 730.58;   -2.420;   -0.580;    0.000;-1.84000
 730.73;    4.140;    3.520;    0.000; 0.62000
 730.88;    4.580;    2.610;    0.000; 1.97000
 731.03;    3.130;    1.650;    0.000; 1.48000
 731.17;    1.350;    2.480;    0.000;-1.13000
 731.32;   -3.040;   -1.800;    0.000;-1.24000
 731.47;    5.280;   -1.380;    0.000; 6.66000
 731.62;   -5.360;    7.960;    0.000;-13.32000
 731.76;    0.450;    6.930;    0.000;-6.48000
 731.91;   -6.290;    8.470;    0.000;-14.76000
 732.06;    0.950;    4.920;    0.000;-3.97000
 732.21;    5.120;    0.350;    0.000; 4.77000
 732.35;   -2.800;   -0.260;    0.000;-2.54000
 732.50;    7.750;    5.020;    0.000; 2.73000
 732.65;    3.410;    0.190;    0.000; 3.22000
 732.80;   -2.540;    5.850;    0.000;-8.39000
 732.94;    1.600;   -2.360;    0.000; 3.96000
 733.09;   -0.210;    0.340;    0.000;-0.55000
 733.24;   -2.490;    2.700;    0.000;-5.19000
 733.39;   -3.580;    5.640;    0.000;-9.22000
 733.53;   -0.770;   -7.300;    0.000; 6.53000
 733.68;   -2.820;    5.300;    0.000;-8.12000
 733.83;   -3.820;   -0.340;    0.000;-3.48000
 733.98;   -4.040;   -4.190;    0.000; 0.15000
 734.12;   -1.170;    3.550;    0.000;-4.72000
 734.27;   -1.830;    8.790;    0.000;-10.62000
 734.42;   -1.990;   -0.920;    0.000;-1.07000
 734.57;    1.480;    1.390;    0.000; 0.09000
 734.71;    1.930;    0.350;    0.000; 1.58000
 734.86;   -2.570;    3.560;    0.000;-6.13000
 735.01;    4.010;    3.450;    0.000; 0.56000
 735.16;    3.890;    2.830;    0.000; 1.06000
 735.30;    7.090;   -1.140;    0.000; 8.23000
 735.45;    3.390;   12.320;    0.000;-8.93000
 735.60;    5.150;    6.770;    0.000;-1.62000
 735.74;   -6.500;    7.200;    0.000;-13.70000
 735.89;   -0.730;    8.500;    0.000;-9.23000
 736.04;   -1.200;    0.290;    0.000;-1.49000
 736.19;    2.490;    3.980;    0.000;-1.49000
 736.33;   10.160;    8.370;    0.000; 1.79000
 736.48;    0.530;    0.870;    0.000;-0.34000
 736.63;    1.040;   -0.080;    0.000; 1.12000
 736.78;    3.660;    3.280;    0.000; 0.38000
 736.92;    4.570;    3.620;    0.000; 0.95000
 737.07;   17.560;   -1.160;    0.000;18.72000
 737.22;    8.430;   -1.070;    0.000; 9.50000
 737.36;    7.010;   -0.230;    0.000; 7.24000
 737.51;    3.890;   -3.710;    0.000; 7.60000
 737.66;   14.370;   -1.610;    0.000;15.98000
 737.81;   11.010;    6.220;    0.000; 4.79000
 737.95;   34.820;   -0.040;    0.000;34.86000
 738.10;  219.440;    4.320;    0.000;215.12000
 738.25;  510.430;    1.780;    0.000;508.65000
 738.40;  309.000;   -0.060;    0.000;309.06000
 738.54;  113.940;   -2.820;    0.000;116.76000
 738.69;   40.320;    7.130;    0.000;33.19000
 738.84;   19.280;   -0.760;    0.000;20.04000
 738.98;   17.590;    6.580;    0.000;11.01000
 739.13;    6.680;   -3.420;    0.000;10.10000
 739.28;    9.850;   -3.540;    0.000;13.39000
 739.42;    2.890;   -6.960;    0.000; 9.85000
 739.57;    6.270;    5.170;    0.000; 1.10000
 739.72;    2.670;    6.860;    0.000;-4.19000
 739.87;    1.090;    4.360;    0.000;-3.27000
 740.01;   -0.280;   -8.490;    0.000; 8.21000
 740.16;   -2.240;   -2.210;    0.000;-0.03000
 740.31;    6.440;    0.360;    0.000; 6.08000
 740.45;    4.790;    9.670;    0.000;-4.88000
 740.60;   -6.640;    2.130;    0.000;-8.77000
 740.75;   -4.590;   -1.050;    0.000;-3.54000
 740.90;   -0.020;    8.140;    0.000;-8.16000
 741.04;    5.820;    3.290;    0.000; 2.53000
 741.19;    1.390;    7.610;    0.000;-6.22000
 741.34;   -4.670;    3.050;    0.000;-7.72000
 741.48;    0.820;   11.540;    0.000;-10.72000
 741.63;    7.200;    4.460;    0.000; 2.74000
 741.78;   -1.440;    4.100;    0.000;-5.54000
 741.92;    2.490;   11.330;    0.000;-8.84000
 742.07;    6.040;    1.140;    0.000; 4.90000
 742.22;   -2.250;    2.860;    0.000;-5.11000
 742.36;    0.780;   -1.930;    0.000; 2.71000
 742.51;    2.730;    2.040;    0.000; 0.69000
 742.66;   -1.060;    7.200;    0.000;-8.26000
 742.81;    2.030;   -2.330;    0.000; 4.36000
 742.95;    6.780;   -0.480;    0.000; 7.26000
 743.10;   -3.120;    5.480;    0.000;-8.60000
 743.25;    2.010;   -3.000;    0.000; 5.01000
 743.39;   -3.850;    2.610;    0.000;-6.46000
 743.54;    2.190;    1.040;    0.000; 1.15000
 743.69;   -3.030;    3.900;    0.000;-6.93000
 743.83;   -1.980;    5.500;    0.000;-7.48000
 743.98;   -7.270;    3.050;    0.000;-10.32000
 744.13;    4.470;   -0.970;    0.000; 5.44000
 744.27;   -2.740;    8.780;    0.000;-11.52000
 744.42;    1.000;    8.920;    0.000;-7.92000
 744.57;   -4.850;    4.090;    0.000;-8.94000
 744.71;   -1.920;    6.890;    0.000;-8.81000
 744.86;    1.810;    3.930;    0.000;-2.12000
 745.01;    1.250;   -2.130;    0.000; 3.38000
 745.15;   -3.030;   -3.170;    0.000; 0.14000
 745.30;   -2.040;   -5.460;    0.000; 3.42000
 745.45;    0.210;    4.200;    0.000;-3.99000
 745.59;    1.190;    5.620;    0.000;-4.43000
 745.74;    0.890;    4.600;    0.000;-3.71000
 745.89;   -0.150;    4.460;    0.000;-4.61000
 746.03;    0.090;    3.620;    0.000;-3.53000
 746.18;    4.190;   -0.740;    0.000; 4.93000
 746.33;   -1.860;   -4.760;    0.000; 2.90000
 746.47;   -1.880;    0.550;    0.000;-2.43000
 746.62;   -4.190;    0.270;    0.000;-4.46000
 746.77;    1.030;    1.940;    0.000;-0.91000
 746.91;    5.660;    1.020;    0.000; 4.64000
 747.06;   -2.770;   -0.370;    0.000;-2.40000
 747.21;    4.960;   11.350;    0.000;-6.39000
 747.35;    7.180;    0.990;    0.000; 6.19000
 747.50;   -0.140;    8.760;    0.000;-8.90000
 747.65;   -0.450;   -3.570;    0.000; 3.12000
 747.79;    5.280;    8.240;    0.000;-2.96000
 747.94;    5.100;    0.810;    0.000; 4.29000
 748.09;   -1.010;    3.130;    0.000;-4.14000
 748.23;    7.800;   11.380;    0.000;-3.58000
 748.38;   -0.310;    5.420;    0.000;-5.73000
 748.53;   -0.030;   -3.590;    0.000; 3.56000
 748.67;    8.840;    7.790;    0.000; 1.05000
 748.82;   -2.680;    6.210;    0.000;-8.89000
 748.96;    3.850;   -1.960;    0.000; 5.81000
 749.11;    0.200;   -3.180;    0.000; 3.38000
 749.26;    3.980;   -0.860;    0.000; 4.84000
 749.40;    3.760;   -3.420;    0.000; 7.18000
 749.55;    4.110;   -2.660;    0.000; 6.77000
 749.70;   10.650;    3.370;    0.000; 7.28000
 749.84;   16.160;    1.130;    0.000;15.03000
 749.99;   49.870;    2.840;    0.000;47.03000
 750.14;  271.280;    2.530;    0.000;268.75000
 750.28;  375.080;    0.380;    0.000;374.70000
 750.43;  161.310;    0.790;    0.000;160.52000
 750.58;   62.480;    1.590;    0.000;60.89000
 750.72;   35.250;   -1.450;    0.000;36.70000
 750.87;   20.290;   -0.400;    0.000;20.69000
 751.01;   32.080;    2.010;    0.000;30.07000
 751.16;  185.660;   -0.150;    0.000;185.81000
 751.31;  428.200;   -1.520;    0.000;429.72000
 751.45;  256.480;    1.300;    0.000;255.18000
 751.60;   89.190;    4.190;    0.000;85.00000
 751.75;   32.680;   -2.160;    0.000;34.84000
 751.89;    9.540;    0.170;    0.000; 9.37000
 752.04;    3.030;   -1.310;    0.000; 4.34000
 752.18;   -0.700;   -1.050;    0.000; 0.35000
 752.33;   -4.280;   -1.910;    0.000;-2.37000
 752.48;    0.260;    6.590;    0.000;-6.33000
 752.62;    9.230;   -1.440;    0.000;10.67000
 752.77;    0.990;    5.180;    0.000;-4.19000
 752.92;   -5.850;   -3.450;    0.000;-2.40000
 753.06;    0.580;    3.250;    0.000;-2.67000
 753.21;    4.760;    5.880;    0.000;-1.12000
 753.35;    0.530;   -0.580;    0.000; 1.11000
 753.50;    8.460;    6.110;    0.000; 2.35000
 753.65;    5.000;    2.070;    0.000; 2.93000
 753.79;   -2.760;    0.680;    0.000;-3.44000
 753.94;    2.090;    4.110;    0.000;-2.02000
 754.08;   -0.840;   -0.330;    0.000;-0.51000
 754.23;    3.140;    0.720;    0.000; 2.42000
 754.38;   -1.870;    0.000;    0.000;-1.87000
 754.52;   -0.670;    8.640;    0.000;-9.31000
 754.67;   -2.400;    1.410;    0.000;-3.81000
 754.82;    8.990;    6.840;    0.000; 2.15000
 754.96;   -2.940;    0.000;    0.000;-2.94000
 755.11;   -6.960;   -4.270;    0.000;-2.69000
 755.25;   -4.920;   -0.100;    0.000;-4.82000
 755.40;   -5.480;    4.590;    0.000;-10.07000
 755.55;    2.160;    3.940;    0.000;-1.78000
 755.69;   -3.030;    5.700;    0.000;-8.73000
 755.84;    2.910;   -4.130;    0.000; 7.04000
 755.98;    1.650;    5.350;    0.000;-3.70000
 756.13;    3.210;    4.360;    0.000;-1.15000
 756.28;    4.610;    2.790;    0.000; 1.82000
 756.42;   -8.870;   -3.340;    0.000;-5.53000
 756.57;   -2.460;    0.770;    0.000;-3.23000
 756.71;    0.740;   -1.820;    0.000; 2.56000
 756.86;   -1.280;    0.510;    0.000;-1.79000
 757.01;    0.950;    2.620;    0.000;-1.67000
 757.15;   -3.710;    2.420;    0.000;-6.13000
 757.30;    1.980;    6.200;    0.000;-4.22000
 757.44;   -0.760;   -1.820;    0.000; 1.06000
 757.59;   -1.380;   -0.870;    0.000;-0.51000
 757.73;    1.350;   -2.530;    0.000; 3.88000
 757.88;    0.700;    1.510;    0.000;-0.81000
 758.03;   -0.200;   -0.140;    0.000;-0.06000
 758.17;    1.890;   -5.240;    0.000; 7.13000
 758.32;   -0.180;    3.800;    0.000;-3.98000
 758.46;    0.630;    3.200;    0.000;-2.57000
 758.61;    4.120;   11.110;    0.000;-6.99000
 758.76;    5.060;    2.310;    0.000; 2.75000
 758.90;   -6.390;    3.960;    0.000;-10.35000
 759.05;    4.490;    1.100;    0.000; 3.39000
 759.19;   -3.530;    6.810;    0.000;-10.34000
 759.34;    1.340;    1.240;    0.000; 0.10000
 759.48;   -2.160;   -0.040;    0.000;-2.12000
 759.63;    0.160;    2.650;    0.000;-2.49000
 759.78;    3.730;    3.270;    0.000; 0.46000
 759.92;    3.310;   -7.050;    0.000;10.36000
 760.07;   -5.210;    7.030;    0.000;-12.24000
 760.21;    2.110;    5.790;    0.000;-3.68000
 760.36;   -1.550;    4.380;    0.000;-5.93000
 760.50;   -0.900;   -0.630;    0.000;-0.27000
 760.65;    1.190;    7.200;    0.000;-6.01000
 760.80;    1.970;    1.750;    0.000; 0.22000
 760.94;    2.370;   -0.030;    0.000; 2.40000
 761.09;    2.020;   -0.790;    0.000; 2.81000
 761.23;   -3.180;    7.910;    0.000;-11.09000
 761.38;   -1.640;    0.110;    0.000;-1.75000
 761.52;    1.540;    4.330;    0.000;-2.79000
 761.67;   -1.830;    2.720;    0.000;-4.55000
 761.82;   -0.570;    3.970;    0.000;-4.54000
 761.96;   -2.160;    1.670;    0.000;-3.83000
 762.11;   -2.740;    2.100;    0.000;-4.84000
 762.25;    9.850;   -9.330;    0.000;19.18000
 762.40;    8.490;   -8.100;    0.000;16.59000
 762.54;   10.530;   -4.280;    0.000;14.81000
 762.69;    1.010;    5.220;    0.000;-4.21000
 762.83;   31.250;   -3.400;    0.000;34.65000
 762.98;   68.250;    1.230;    0.000;67.02000
 763.13;  290.250;   -5.570;    0.000;295.82000
 763.27; 1396.490;    3.320;    0.000;1393.17000
 763.42; 1670.560;   -0.640;    0.000;1671.20000
 763.56;  641.360;    1.630;    0.000;639.73000
 763.71;  251.990;   -4.940;    0.000;256.93000
 763.85;   95.760;   -5.310;    0.000;101.07000
 764.00;   41.480;   -1.810;    0.000;43.29000
 764.14;   27.510;   -2.680;    0.000;30.19000
 764.29;   17.930;   -1.150;    0.000;19.08000
 764.44;   12.130;    3.520;    0.000; 8.61000
 764.58;   11.670;   -3.600;    0.000;15.27000
 764.73;    7.000;    2.020;    0.000; 4.98000
 764.87;    7.130;    0.570;    0.000; 6.56000
 765.02;    0.230;    3.780;    0.000;-3.55000
 765.16;    0.020;   -0.620;    0.000; 0.64000
 765.31;    8.310;   -0.160;    0.000; 8.47000
 765.45;    3.660;    5.020;    0.000;-1.36000
 765.60;    7.990;    8.450;    0.000;-0.46000
 765.74;    3.790;    4.980;    0.000;-1.19000
 765.89;   16.700;   -0.370;    0.000;17.07000
 766.03;   41.560;   -5.120;    0.000;46.68000
 766.18;  208.740;    3.410;    0.000;205.33000
 766.33;  522.480;    7.830;    0.000;514.65000
 766.47;  321.220;    1.880;    0.000;319.34000
 766.62;  110.250;    1.310;    0.000;108.94000
 766.76;   44.070;   -0.160;    0.000;44.23000
 766.91;   22.960;   -3.340;    0.000;26.30000
 767.05;   13.900;    1.010;    0.000;12.89000
 767.20;    1.040;   -3.020;    0.000; 4.06000
 767.34;    3.780;    7.060;    0.000;-3.28000
 767.49;    2.610;    1.940;    0.000; 0.67000
 767.63;   -0.510;    2.430;    0.000;-2.94000
 767.78;    3.180;   -5.180;    0.000; 8.36000
 767.92;   -7.310;    3.690;    0.000;-11.00000
 768.07;    3.060;   -3.290;    0.000; 6.35000
 768.21;    3.300;    0.400;    0.000; 2.90000
 768.36;   -3.780;    7.700;    0.000;-11.48000
 768.50;    6.040;    0.030;    0.000; 6.01000
 768.65;   11.090;  -10.600;    0.000;21.69000
 768.79;    5.010;    3.690;    0.000; 1.32000
 768.94;    0.280;   -7.900;    0.000; 8.18000
 769.08;    4.620;    2.230;    0.000; 2.39000
 769.23;    8.310;   -0.030;    0.000; 8.34000
 769.37;   13.830;    4.910;    0.000; 8.92000
 769.52;   54.340;    3.460;    0.000;50.88000
 769.66;  239.580;    2.660;    0.000;236.92000
 769.81;  271.250;    3.920;    0.000;267.33000
 769.95;   92.630;    7.530;    0.000;85.10000
 770.10;   36.860;    2.060;    0.000;34.80000
 770.24;   18.310;    2.720;    0.000;15.59000
 770.39;    8.510;    3.440;    0.000; 5.07000
 770.53;   -1.340;   -0.860;    0.000;-0.48000
 770.68;   -1.350;   -3.930;    0.000; 2.58000
 770.82;    0.310;   -1.590;    0.000; 1.90000
 770.97;    6.660;   -5.960;    0.000;12.62000
 771.11;   14.780;    8.010;    0.000; 6.77000
 771.26;    4.910;   -0.120;    0.000; 5.03000
 771.40;   -0.620;    1.680;    0.000;-2.30000
 771.55;    7.030;    8.070;    0.000;-1.04000
 771.69;    6.980;   10.460;    0.000;-3.48000
 771.84;   17.070;   -1.660;    0.000;18.73000
 771.98;   65.070;    7.330;    0.000;57.74000
 772.13;  349.440;   -1.130;    0.000;350.57000
 772.27;  563.410;    7.170;    0.000;556.24000
 772.42;  261.440;    3.040;    0.000;258.40000
 772.56;   91.210;    2.090;    0.000;89.12000
 772.71;   30.200;   -8.710;    0.000;38.91000
 772.85;   17.510;    0.210;    0.000;17.30000
 773.00;    5.500;   -3.170;    0.000; 8.67000
 773.14;    2.670;    1.190;    0.000; 1.48000
 773.29;    6.500;   -5.260;    0.000;11.76000
 773.43;    3.380;    4.600;    0.000;-1.22000
 773.58;    3.260;   -4.950;    0.000; 8.21000
 773.72;    0.800;   -0.720;    0.000; 1.52000
 773.87;   -0.200;   -8.290;    0.000; 8.09000
 774.01;   -5.160;    1.550;    0.000;-6.71000
 774.16;    5.020;   -8.200;    0.000;13.22000
 774.30;    3.090;    9.380;    0.000;-6.29000
 774.45;    2.740;   -8.110;    0.000;10.85000
 774.59;   -3.620;   -1.880;    0.000;-1.74000
 774.74;    2.290;   -0.260;    0.000; 2.55000
 774.88;   -6.390;   -1.220;    0.000;-5.17000
 775.03;    3.770;   -4.540;    0.000; 8.31000
 775.17;    6.240;    4.040;    0.000; 2.20000
 775.32;    6.640;    4.290;    0.000; 2.35000
 775.46;    0.200;    3.190;    0.000;-2.99000
 775.60;   -3.230;    2.650;    0.000;-5.88000
 775.75;   -3.250;    8.180;    0.000;-11.43000
 775.89;    6.710;   -1.200;    0.000; 7.91000
 776.04;   -5.310;    9.290;    0.000;-14.60000
 776.18;   -5.370;   -0.320;    0.000;-5.05000
 776.33;    0.230;    4.240;    0.000;-4.01000
 776.47;   -0.770;    8.090;    0.000;-8.86000
 776.62;    2.900;    0.350;    0.000; 2.55000
 776.76;    5.170;    4.340;    0.000; 0.83000
 776.91;    3.100;   -2.900;    0.000; 6.00000
 777.05;    3.740;    1.710;    0.000; 2.03000
 777.20;    0.860;    2.820;    0.000;-1.96000
 777.34;    5.340;   -8.100;    0.000;13.44000
 777.48;    4.990;    6.170;    0.000;-1.18000
 777.63;   -1.200;   -1.620;    0.000; 0.42000
 777.77;    0.260;    6.440;    0.000;-6.18000
 777.92;   -2.480;   -6.180;    0.000; 3.70000
 778.06;   -6.650;    2.630;    0.000;-9.28000
 778.21;   -3.130;   -1.360;    0.000;-1.77000
 778.35;   -7.070;    7.200;    0.000;-14.27000
 778.50;   -1.510;    9.950;    0.000;-11.46000
 778.64;   -0.570;    1.170;    0.000;-1.74000
 778.79;    0.510;    3.690;    0.000;-3.18000
 778.93;   -3.970;    4.130;    0.000;-8.10000
 779.07;    0.550;   -5.070;    0.000; 5.62000
 779.22;   -0.880;    0.980;    0.000;-1.86000
 779.36;    2.880;    3.040;    0.000;-0.16000
 779.51;   -5.600;   -1.680;    0.000;-3.92000
 779.65;    3.980;   -0.700;    0.000; 4.68000
 779.80;   -1.150;    5.670;    0.000;-6.82000
 779.94;   -0.320;    0.060;    0.000;-0.38000
 780.08;    2.450;    2.050;    0.000; 0.40000
 780.23;    1.720;   -4.460;    0.000; 6.18000
 780.37;   -9.050;    7.840;    0.000;-16.89000
 780.52;    6.940;   -3.480;    0.000;10.42000
 780.66;    1.350;   -0.800;    0.000; 2.15000
 780.81;    0.880;   -7.000;    0.000; 7.88000
 780.95;   -4.100;    2.280;    0.000;-6.38000
 781.10;    1.550;    7.810;    0.000;-6.26000
 781.24;    4.790;    4.530;    0.000; 0.26000
 781.38;   -7.610;    3.560;    0.000;-11.17000
 781.53;    1.130;    2.200;    0.000;-1.07000
 781.67;   -1.660;   -5.840;    0.000; 4.18000
 781.82;   -1.880;    8.230;    0.000;-10.11000
 781.96;   -6.740;    0.470;    0.000;-7.21000
 782.11;    4.040;    5.500;    0.000;-1.46000
 782.25;   -0.740;   -7.620;    0.000; 6.88000
 782.39;    3.130;    8.090;    0.000;-4.96000
 782.54;   -6.210;   -0.010;    0.000;-6.20000
 782.68;    3.010;    2.330;    0.000; 0.68000
 782.83;   -2.900;    1.260;    0.000;-4.16000
 782.97;    5.890;    3.830;    0.000; 2.06000
 783.11;    0.800;   -0.420;    0.000; 1.22000
 783.26;    2.970;    5.490;    0.000;-2.52000
 783.40;    1.970;    0.870;    0.000; 1.10000
 783.55;    0.650;    6.120;    0.000;-5.47000
 783.69;    3.690;   -2.950;    0.000; 6.64000
 783.84;   -0.450;    0.120;    0.000;-0.57000
 783.98;    4.530;   -2.360;    0.000; 6.89000
 784.12;   -0.540;    8.720;    0.000;-9.26000
 784.27;    7.960;   -2.430;    0.000;10.39000
 784.41;    7.830;    6.010;    0.000; 1.82000
 784.56;   -4.490;  -10.020;    0.000; 5.53000
 784.70;   -0.700;    8.670;    0.000;-9.37000
 784.84;    3.430;    1.410;    0.000; 2.02000
 784.99;   -4.550;    2.670;    0.000;-7.22000
 785.13;    2.330;    1.170;    0.000; 1.16000
 785.28;   -3.140;   -2.620;    0.000;-0.52000
 785.42;   -0.920;   -2.450;    0.000; 1.53000
 785.56;    5.130;    2.120;    0.000; 3.01000
 785.71;    2.930;    0.390;    0.000; 2.54000
 785.85;    2.930;    2.590;    0.000; 0.34000
 786.00;    0.130;    5.590;    0.000;-5.46000
 786.14;   -4.240;    0.880;    0.000;-5.12000
 786.28;   -2.090;   -3.350;    0.000; 1.26000
 786.43;  -14.530;   -1.410;    0.000;-13.12000
 786.57;    1.500;    2.580;    0.000;-1.08000
 786.72;   -0.610;    9.600;    0.000;-10.21000
 786.86;   -1.020;    2.220;    0.000;-3.24000
 787.00;   -3.200;    6.250;    0.000;-9.45000
 787.15;    3.360;   -2.060;    0.000; 5.42000
 787.29;   -4.550;    4.210;    0.000;-8.76000
 787.44;    1.370;    5.690;    0.000;-4.32000
 787.58;   -4.220;    2.170;    0.000;-6.39000
 787.72;   -0.430;    1.620;    0.000;-2.05000
 787.87;    1.780;    7.080;    0.000;-5.30000
 788.01;   -0.300;   -2.580;    0.000; 2.28000
 788.15;    2.600;    9.590;    0.000;-6.99000
 788.30;    3.610;    1.100;    0.000; 2.51000
 788.44;   -4.150;   -0.810;    0.000;-3.34000
 788.59;    1.710;   -3.260;    0.000; 4.97000
 788.73;    2.920;    4.610;    0.000;-1.69000
 788.87;   -1.270;   -0.150;    0.000;-1.12000
 789.02;    2.310;    0.760;    0.000; 1.55000
 789.16;    2.320;   -1.850;    0.000; 4.17000
 789.30;   -4.210;   -0.610;    0.000;-3.60000
 789.45;    2.100;   -2.360;    0.000; 4.46000
 789.59;   -5.100;   -1.640;    0.000;-3.46000
 789.74;   -4.620;    1.780;    0.000;-6.40000
 789.88;    3.840;    3.250;    0.000; 0.59000
 790.02;    3.370;   -2.610;    0.000; 5.98000
 790.17;   -3.940;    3.370;    0.000;-7.31000
 790.31;    1.910;    4.540;    0.000;-2.63000
 790.45;   -0.690;   -0.430;    0.000;-0.26000
 790.60;   -3.450;    8.980;    0.000;-12.43000
 790.74;    1.280;    5.450;    0.000;-4.17000
 790.89;    1.900;   -3.090;    0.000; 4.99000
 791.03;    2.750;    4.350;    0.000;-1.60000
 791.17;   -3.120;   -0.970;    0.000;-2.15000
 791.32;   -9.390;    3.130;    0.000;-12.52000
 791.46;   -0.470;   -3.320;    0.000; 2.85000
 791.60;   -1.990;    5.670;    0.000;-7.66000
 791.75;    4.410;   -2.810;    0.000; 7.22000
 791.89;   -1.410;    2.910;    0.000;-4.32000
 792.03;   -0.800;   -0.100;    0.000;-0.70000
 792.18;    2.240;    6.540;    0.000;-4.30000
 792.32;    6.640;    3.780;    0.000; 2.86000
 792.46;   -0.840;    4.440;    0.000;-5.28000
 792.61;   -5.530;    0.120;    0.000;-5.65000
 792.75;   -1.740;    2.410;    0.000;-4.15000
 792.89;    2.770;   -7.730;    0.000;10.50000
 793.04;    1.520;   -1.930;    0.000; 3.45000
 793.18;   -1.070;   -4.790;    0.000; 3.72000
 793.33;    0.820;    4.010;    0.000;-3.19000
 793.47;    0.870;   -0.250;    0.000; 1.12000
 793.61;   -8.620;   -4.700;    0.000;-3.92000
 793.76;   -0.410;    0.390;    0.000;-0.80000
 793.90;    0.910;   -3.450;    0.000; 4.36000
 794.04;    7.510;   -2.460;    0.000; 9.97000
 794.19;    1.380;    1.590;    0.000;-0.21000
 794.33;   13.160;   -5.540;    0.000;18.70000
 794.47;  121.890;    2.580;    0.000;119.31000
 794.62;  387.680;    5.630;    0.000;382.05000
 794.76;  277.470;   -1.920;    0.000;279.39000
 794.90;   82.580;    0.840;    0.000;81.74000
 795.05;   27.440;    1.830;    0.000;25.61000
 795.19;   13.390;   -3.550;    0.000;16.94000
 795.33;    6.670;    2.850;    0.000; 3.82000
 795.48;    7.350;   -1.610;    0.000; 8.96000
 795.62;    6.340;   -5.940;    0.000;12.28000
 795.76;    2.250;    0.880;    0.000; 1.37000
 795.91;   -9.220;   -1.050;    0.000;-8.17000
 796.05;    1.610;   -1.690;    0.000; 3.30000
 796.19;    1.410;    2.810;    0.000;-1.40000
 796.34;    4.230;    5.520;    0.000;-1.29000
 796.48;    2.350;    7.220;    0.000;-4.87000
 796.62;    0.570;    5.700;    0.000;-5.13000
 796.77;    2.670;    6.290;    0.000;-3.62000
 796.91;    4.630;    3.160;    0.000; 1.47000
 797.05;   -4.220;    3.200;    0.000;-7.42000
 797.20;   -0.070;   -1.060;    0.000; 0.99000
 797.34;    0.230;    0.140;    0.000; 0.09000
 797.48;   -3.150;   -0.270;    0.000;-2.88000
 797.62;    1.780;    4.140;    0.000;-2.36000
 797.77;    1.600;   -3.640;    0.000; 5.24000
 797.91;    4.170;    2.400;    0.000; 1.77000
 798.05;   -1.690;   -5.600;    0.000; 3.91000
 798.20;    0.140;   -0.160;    0.000; 0.30000
 798.34;   -3.820;    3.090;    0.000;-6.91000
 798.48;    7.310;    5.010;    0.000; 2.30000
 798.63;   -2.150;   -4.500;    0.000; 2.35000
 798.77;    0.870;    5.830;    0.000;-4.96000
 798.91;   -5.740;   -2.310;    0.000;-3.43000
 799.06;    2.930;    5.300;    0.000;-2.37000
 799.20;   -0.610;    2.030;    0.000;-2.64000
 799.34;    6.980;   -1.330;    0.000; 8.31000
 799.48;    5.650;    2.050;    0.000; 3.60000
 799.63;    3.380;    8.950;    0.000;-5.57000
 799.77;    6.500;    2.190;    0.000; 4.31000
 799.91;    3.020;    3.790;    0.000;-0.77000
 800.06;   -1.700;   -0.080;    0.000;-1.62000
 800.20;   25.230;    5.060;    0.000;20.17000
 800.34;  140.200;   -3.390;    0.000;143.59000
 800.49;  212.900;    6.740;    0.000;206.16000
 800.63;   77.350;    0.910;    0.000;76.44000
 800.77;   31.630;    2.700;    0.000;28.93000
 800.91;   24.350;    2.080;    0.000;22.27000
 801.06;   52.140;    2.110;    0.000;50.03000
 801.20;  273.770;   -5.360;    0.000;279.13000
 801.34;  406.200;    5.100;    0.000;401.10000
 801.49;  161.950;   -1.410;    0.000;163.36000
 801.63;   59.380;    2.130;    0.000;57.25000
 801.77;   29.850;    6.780;    0.000;23.07000
 801.91;   13.790;    5.900;    0.000; 7.89000
 802.06;   -1.930;   -3.100;    0.000; 1.17000
 802.20;   -0.920;    7.400;    0.000;-8.32000
 802.34;    3.380;    1.100;    0.000; 2.28000
 802.49;    1.640;    9.820;    0.000;-8.18000
 802.63;   11.860;    0.130;    0.000;11.73000
 802.77;    2.010;   -1.620;    0.000; 3.63000
 802.91;   -6.140;    2.820;    0.000;-8.96000
 803.06;   -1.830;   -0.640;    0.000;-1.19000
 803.20;   -0.260;   -2.210;    0.000; 1.95000
 803.34;   -2.590;    5.010;    0.000;-7.60000
 803.49;    3.480;    1.640;    0.000; 1.84000
 803.63;   -4.520;    0.840;    0.000;-5.36000
 803.77;   -3.500;   -6.350;    0.000; 2.85000
 803.91;   -0.630;   -0.870;    0.000; 0.24000
 804.06;    0.870;   -0.700;    0.000; 1.57000
 804.20;   -0.310;   -3.100;    0.000; 2.79000
 804.34;    0.600;   -8.100;    0.000; 8.70000
 804.48;    2.330;    1.960;    0.000; 0.37000
 804.63;   -1.950;   -2.480;    0.000; 0.53000
 804.77;   -4.250;    6.750;    0.000;-11.00000
 804.91;    3.550;   -2.520;    0.000; 6.07000
 805.06;   -1.660;   -0.710;    0.000;-0.95000
 805.20;    3.670;   -1.790;    0.000; 5.46000
 805.34;    2.810;    9.720;    0.000;-6.91000
 805.48;   -0.790;   -4.920;    0.000; 4.13000
 805.63;   -2.050;    3.320;    0.000;-5.37000
 805.77;   -4.020;   -5.370;    0.000; 1.35000
 805.91;   -4.730;    3.300;    0.000;-8.03000
 806.05;   -2.600;   -8.380;    0.000; 5.78000
 806.20;    6.010;    1.690;    0.000; 4.32000
 806.34;    6.630;   -2.710;    0.000; 9.34000
 806.48;    4.350;   -0.970;    0.000; 5.32000
 806.62;    2.050;    5.000;    0.000;-2.95000
 806.77;   -3.620;    7.650;    0.000;-11.27000
 806.91;   -6.770;   -4.380;    0.000;-2.39000
 807.05;    3.870;    7.830;    0.000;-3.96000
 807.19;   -1.670;   -2.060;    0.000; 0.39000
 807.34;   -4.750;    6.470;    0.000;-11.22000
 807.48;    0.730;   -3.230;    0.000; 3.96000
 807.62;   -0.440;    2.620;    0.000;-3.06000
 807.76;    1.400;    2.020;    0.000;-0.62000
 807.91;    4.430;   -0.390;    0.000; 4.82000
 808.05;   -2.040;    7.240;    0.000;-9.28000
 808.19;   -1.210;    6.970;    0.000;-8.18000
 808.33;   -0.220;    1.840;    0.000;-2.06000
 808.48;    1.720;    4.420;    0.000;-2.70000
 808.62;    1.510;   -3.150;    0.000; 4.66000
 808.76;   -2.380;    7.230;    0.000;-9.61000
 808.90;   -0.670;    2.630;    0.000;-3.30000
 809.04;    3.880;    8.840;    0.000;-4.96000
 809.19;    0.210;    1.460;    0.000;-1.25000
 809.33;    3.430;    3.060;    0.000; 0.37000
 809.47;   -0.880;    0.030;    0.000;-0.91000
 809.61;    6.190;   -1.030;    0.000; 7.22000
 809.76;   13.280;    5.610;    0.000; 7.67000
 809.90;   34.070;    1.040;    0.000;33.03000
 810.04;  196.860;    0.030;    0.000;196.83000
 810.18;  507.480;   -0.610;    0.000;508.09000
 810.33;  291.630;   -5.970;    0.000;297.60000
 810.47;   99.940;    6.750;    0.000;93.19000
 810.61;   45.100;    6.860;    0.000;38.24000
 810.75;   28.310;    2.380;    0.000;25.93000
 810.89;   33.690;    0.510;    0.000;33.18000
 811.04;   86.500;    3.060;    0.000;83.44000
 811.18;  484.540;    4.920;    0.000;479.62000
 811.32; 1611.070;    3.050;    0.000;1608.02000
 811.46; 1210.730;    3.090;    0.000;1207.64000
 811.61;  376.340;    3.600;    0.000;372.74000
 811.75;  150.040;    3.200;    0.000;146.84000
 811.89;   70.420;   -1.710;    0.000;72.13000
 812.03;   27.990;   -3.070;    0.000;31.06000
 812.17;   11.290;   -1.410;    0.000;12.70000
 812.32;   18.290;   -8.070;    0.000;26.36000
 812.46;    7.640;    4.750;    0.000; 2.89000
 812.60;    8.460;    1.810;    0.000; 6.65000
 812.74;   14.700;    5.250;    0.000; 9.45000
 812.88;    3.890;   -3.630;    0.000; 7.52000
 813.03;    2.090;    2.670;    0.000;-0.58000
 813.17;   11.850;    2.160;    0.000; 9.69000
 813.31;    1.820;    8.920;    0.000;-7.10000
 813.45;   -2.100;   -7.490;    0.000; 5.39000
 813.59;    5.520;    2.840;    0.000; 2.68000
 813.74;    5.220;   -6.390;    0.000;11.61000
 813.88;    1.360;   -3.310;    0.000; 4.67000
 814.02;    3.070;   -5.640;    0.000; 8.71000
 814.16;    0.680;    4.260;    0.000;-3.58000
 814.30;    3.810;   -1.320;    0.000; 5.13000
 814.45;   -0.640;    3.060;    0.000;-3.70000
 814.59;   -3.730;   -2.710;    0.000;-1.02000
 814.73;   -4.320;    0.780;    0.000;-5.10000
 814.87;    4.390;   -0.750;    0.000; 5.14000
 815.01;   -2.030;    1.540;    0.000;-3.57000
 815.16;    0.430;    6.810;    0.000;-6.38000
 815.30;   -4.130;   -7.190;    0.000; 3.06000
 815.44;    3.430;    4.460;    0.000;-1.03000
 815.58;   -1.690;    3.640;    0.000;-5.33000
 815.72;   -0.130;   -5.920;    0.000; 5.79000
 815.87;   -1.190;   -1.420;    0.000; 0.23000
 816.01;    6.010;    5.500;    0.000; 0.51000
 816.15;    4.950;    5.740;    0.000;-0.79000
 816.29;   -0.190;   -1.130;    0.000; 0.94000
 816.43;   -3.290;    1.290;    0.000;-4.58000
 816.57;    3.470;   -2.740;    0.000; 6.21000
 816.72;    0.050;    1.280;    0.000;-1.23000
 816.86;    2.700;   -2.510;    0.000; 5.21000
 817.00;    1.840;    2.860;    0.000;-1.02000
 817.14;   -0.650;   -2.160;    0.000; 1.51000
 817.28;    2.380;   -2.690;    0.000; 5.07000
 817.43;   -5.410;   -3.070;    0.000;-2.34000
 817.57;    2.070;   -1.320;    0.000; 3.39000
 817.71;   -2.550;   -1.590;    0.000;-0.96000
 817.85;   12.170;   -0.600;    0.000;12.77000
 817.99;   71.170;    5.630;    0.000;65.54000
 818.13;  188.580;    2.170;    0.000;186.41000
 818.28;  118.110;   -0.910;    0.000;119.02000
 818.42;   31.800;    1.480;    0.000;30.32000
 818.56;   16.120;   -1.900;    0.000;18.02000
 818.70;   15.700;    2.470;    0.000;13.23000
 818.84;    5.600;    3.810;    0.000; 1.79000
 818.98;   23.000;    1.100;    0.000;21.90000
 819.13;   91.220;    3.640;    0.000;87.58000
 819.27;  347.620;    6.360;    0.000;341.26000
 819.41;  270.380;   -0.830;    0.000;271.21000
 819.55;   77.480;    2.230;    0.000;75.25000
 819.69;   28.120;   -2.260;    0.000;30.38000
 819.83;   12.060;    4.870;    0.000; 7.19000
 819.98;    2.850;    6.960;    0.000;-4.11000
 820.12;   -0.630;    1.500;    0.000;-2.13000
 820.26;   -1.200;    9.100;    0.000;-10.30000
 820.40;    8.980;   -0.860;    0.000; 9.84000
 820.54;    4.570;    0.430;    0.000; 4.14000
 820.68;    2.360;    1.080;    0.000; 1.28000
 820.82;    1.670;    0.440;    0.000; 1.23000
 820.97;    3.720;   -1.170;    0.000; 4.89000
 821.11;    1.180;   -1.750;    0.000; 2.93000
 821.25;   -5.490;    6.180;    0.000;-11.67000
 821.39;    7.800;    1.250;    0.000; 6.55000
 821.53;    1.230;    7.050;    0.000;-5.82000
 821.67;   -2.980;    1.750;    0.000;-4.73000
 821.81;   -2.890;    4.440;    0.000;-7.33000
 821.96;    0.240;    1.510;    0.000;-1.27000
 822.10;    2.180;    8.420;    0.000;-6.24000
 822.24;    1.820;    3.170;    0.000;-1.35000
 822.38;   -0.140;   -0.370;    0.000; 0.23000
 822.52;    2.140;    2.310;    0.000;-0.17000
 822.66;    6.580;    7.870;    0.000;-1.29000
 822.80;    5.840;   -3.600;    0.000; 9.44000
 822.95;    3.200;    4.360;    0.000;-1.16000
 823.09;   -8.750;   -2.570;    0.000;-6.18000
 823.23;    0.130;    8.640;    0.000;-8.51000
 823.37;    2.440;   -0.770;    0.000; 3.21000
 823.51;    3.310;    3.740;    0.000;-0.43000
 823.65;    3.280;    1.870;    0.000; 1.41000
 823.79;    3.840;    5.160;    0.000;-1.32000
 823.94;    8.150;   -6.720;    0.000;14.87000
 824.08;    7.110;    3.400;    0.000; 3.71000
 824.22;   -5.020;    5.950;    0.000;-10.97000
 824.36;   -0.680;    5.280;    0.000;-5.96000
 824.50;    3.680;   -0.760;    0.000; 4.44000
 824.64;    2.250;    3.080;    0.000;-0.83000
 824.78;    2.250;   -0.190;    0.000; 2.44000
 824.92;    4.570;    7.330;    0.000;-2.76000
 825.06;   -2.690;   -0.240;    0.000;-2.45000
 825.21;    4.080;    2.910;    0.000; 1.17000
 825.35;   -0.650;    5.830;    0.000;-6.48000
 825.49;    1.080;    7.020;    0.000;-5.94000
 825.63;    8.440;    3.090;    0.000; 5.35000
 825.77;    2.440;    9.700;    0.000;-7.26000
 825.91;   11.660;    1.390;    0.000;10.27000
 826.05;   35.700;    6.090;    0.000;29.61000
 826.19;  190.930;    1.140;    0.000;189.79000
 826.34;  228.290;    2.140;    0.000;226.15000
 826.48;   74.120;    1.650;    0.000;72.47000
 826.62;   32.140;    6.210;    0.000;25.93000
 826.76;   -0.570;   -0.210;    0.000;-0.36000
 826.90;    7.800;    3.850;    0.000; 3.95000
 827.04;   -0.400;   -3.240;    0.000; 2.84000
 827.18;   -5.650;    6.510;    0.000;-12.16000
 827.32;    0.840;   -2.750;    0.000; 3.59000
 827.46;   -3.270;    0.060;    0.000;-3.33000
 827.60;    8.530;   -4.160;    0.000;12.69000
 827.75;   -1.510;   -1.970;    0.000; 0.46000
 827.89;   -4.890;   -3.410;    0.000;-1.48000
 828.03;   -1.030;    8.630;    0.000;-9.66000
 828.17;   -1.480;   -4.320;    0.000; 2.84000
 828.31;    1.990;    2.300;    0.000;-0.31000
 828.45;    0.300;    5.400;    0.000;-5.10000
 828.59;    3.130;    3.160;    0.000;-0.03000
 828.73;    1.980;   -5.300;    0.000; 7.28000
 828.87;    3.570;    7.410;    0.000;-3.84000
 829.01;   -0.160;    4.230;    0.000;-4.39000
 829.16;    3.740;    0.680;    0.000; 3.06000
 829.30;   -2.750;   -0.700;    0.000;-2.05000
 829.44;    1.690;    3.450;    0.000;-1.76000
 829.58;   -1.800;   -0.240;    0.000;-1.56000
 829.72;    2.890;    1.410;    0.000; 1.48000
 829.86;    7.740;    9.870;    0.000;-2.13000
 830.00;   -5.200;    1.240;    0.000;-6.44000
 830.14;   -1.520;    0.550;    0.000;-2.07000
 830.28;   -0.920;    2.820;    0.000;-3.74000
 830.42;   -3.000;    2.600;    0.000;-5.60000
 830.56;   -3.750;    5.400;    0.000;-9.15000
 830.70;   -0.160;   -1.170;    0.000; 1.01000
 830.85;    4.130;    3.320;    0.000; 0.81000
 830.99;   -2.040;   -3.990;    0.000; 1.95000
 831.13;    3.580;    5.070;    0.000;-1.49000
 831.27;   -2.530;    1.850;    0.000;-4.38000
 831.41;    1.320;   -0.410;    0.000; 1.73000
 831.55;    2.730;    1.050;    0.000; 1.68000
 831.69;   -0.310;   -7.340;    0.000; 7.03000
 831.83;   -3.930;   -6.180;    0.000; 2.25000
 831.97;    4.410;    5.130;    0.000;-0.72000
 832.11;    3.270;   -4.390;    0.000; 7.66000
 832.25;   -2.880;    5.140;    0.000;-8.02000
 832.39;   -0.600;   -2.250;    0.000; 1.65000
 832.53;    3.190;    6.140;    0.000;-2.95000
 832.67;    2.500;   -7.300;    0.000; 9.80000
 832.81;   -2.200;   -0.010;    0.000;-2.19000
 832.96;    2.230;    2.220;    0.000; 0.01000
 833.10;   -8.500;    3.640;    0.000;-12.14000
 833.24;   -3.890;   -4.900;    0.000; 1.01000
 833.38;   -2.080;   -3.790;    0.000; 1.71000
 833.52;    0.300;    0.360;    0.000;-0.06000
 833.66;    1.470;    0.810;    0.000; 0.66000
 833.80;    6.720;    1.850;    0.000; 4.87000
 833.94;   -0.090;    2.900;    0.000;-2.99000
 834.08;   -6.050;   -1.790;    0.000;-4.26000
 834.22;  -11.060;    4.840;    0.000;-15.90000
 834.36;    8.260;    4.530;    0.000; 3.73000
 834.50;   -0.980;    5.500;    0.000;-6.48000
 834.64;    0.050;   -1.240;    0.000; 1.29000
 834.78;    0.700;    1.410;    0.000;-0.71000
 834.92;    0.270;    2.270;    0.000;-2.00000
 835.06;   -0.300;    2.200;    0.000;-2.50000
 835.20;    2.340;    3.890;    0.000;-1.55000
 835.34;   -5.850;    7.340;    0.000;-13.19000
 835.48;    1.570;    3.760;    0.000;-2.19000
 835.63;   -0.740;   -2.550;    0.000; 1.81000
 835.77;   -1.400;    2.380;    0.000;-3.78000
 835.91;    8.700;    2.980;    0.000; 5.72000
 836.05;   -2.100;   -3.560;    0.000; 1.46000
 836.19;   -1.680;   -2.200;    0.000; 0.52000
 836.33;    4.390;    2.390;    0.000; 2.00000
 836.47;    4.250;    3.350;    0.000; 0.90000
 836.61;   -3.040;   -2.020;    0.000;-1.02000
 836.75;   -2.600;    0.630;    0.000;-3.23000
 836.89;   -4.880;   -2.320;    0.000;-2.56000
 837.03;    3.930;    0.160;    0.000; 3.77000
 837.17;   -1.000;    1.980;    0.000;-2.98000
 837.31;    1.480;    1.350;    0.000; 0.13000
 837.45;   -0.430;    1.710;    0.000;-2.14000
 837.59;   -1.410;   -2.390;    0.000; 0.98000
 837.73;    2.990;    5.680;    0.000;-2.69000
 837.87;    2.700;   -1.180;    0.000; 3.88000
 838.01;    2.110;   -0.450;    0.000; 2.56000
 838.15;    0.210;   -1.620;    0.000; 1.83000
 838.29;   -4.320;   -0.320;    0.000;-4.00000
 838.43;    3.580;   10.890;    0.000;-7.31000
 838.57;   -1.170;   11.320;    0.000;-12.49000
 838.71;  -10.640;    5.980;    0.000;-16.62000
 838.85;   -3.590;   -6.480;    0.000; 2.89000
 838.99;    1.330;   -0.780;    0.000; 2.11000
 839.13;   10.960;    8.970;    0.000; 1.99000
 839.27;    2.680;    1.800;    0.000; 0.88000
 839.41;    5.450;    0.830;    0.000; 4.62000
 839.55;    6.470;   -3.610;    0.000;10.08000
 839.69;    0.740;    3.660;    0.000;-2.92000
 839.83;    0.950;    4.640;    0.000;-3.69000
 839.97;   -4.230;    2.410;    0.000;-6.64000
 840.11;   -0.890;    4.140;    0.000;-5.03000
 840.25;    9.840;    5.830;    0.000; 4.01000
 840.39;   31.140;   -3.530;    0.000;34.67000
 840.53;  215.760;   -2.830;    0.000;218.59000
 840.67;  368.350;   -2.750;    0.000;371.10000
 840.81;  144.930;    3.910;    0.000;141.02000
 840.95;   48.470;    4.930;    0.000;43.54000
 841.09;   16.780;   -0.620;    0.000;17.40000
 841.23;    8.660;    8.180;    0.000; 0.48000
 841.37;    5.940;   -3.880;    0.000; 9.82000
 841.51;    9.930;   -0.060;    0.000; 9.99000
 841.65;    5.160;   -1.580;    0.000; 6.74000
 841.79;    8.160;    3.740;    0.000; 4.42000
 841.93;   22.930;    6.690;    0.000;16.24000
 842.07;   79.060;    4.960;    0.000;74.10000
 842.21;  419.380;   -4.370;    0.000;423.75000
 842.35;  480.770;   12.220;    0.000;468.55000
 842.49;  147.460;   -3.190;    0.000;150.65000
 842.63;   48.350;    4.540;    0.000;43.81000
 842.77;   23.160;   -2.780;    0.000;25.94000
 842.91;   11.660;    4.590;    0.000; 7.07000
 843.05;    2.040;    0.120;    0.000; 1.92000
 843.19;    6.050;    3.060;    0.000; 2.99000
 843.33;    2.770;    3.630;    0.000;-0.86000
 843.47;    3.110;    6.940;    0.000;-3.83000
 843.61;    3.050;   -0.590;    0.000; 3.64000
 843.75;   -4.070;   10.800;    0.000;-14.87000
 843.89;   -0.570;    2.240;    0.000;-2.81000
 844.03;    4.010;    6.540;    0.000;-2.53000
 844.17;   -0.010;    2.910;    0.000;-2.92000
 844.31;   -3.410;   -0.750;    0.000;-2.66000
 844.45;   10.110;   -0.890;    0.000;11.00000
 844.59;    0.410;    0.320;    0.000; 0.09000
 844.73;   -4.340;    2.440;    0.000;-6.78000
 844.87;    1.980;    2.880;    0.000;-0.90000
 845.01;   -4.300;   -5.850;    0.000; 1.55000
 845.15;   -6.500;   10.700;    0.000;-17.20000
 845.29;   -1.460;   -1.770;    0.000; 0.31000
 845.43;    7.880;    6.950;    0.000; 0.93000
 845.57;    6.940;   -2.830;    0.000; 9.77000
 845.71;   -3.630;    4.870;    0.000;-8.50000
 845.85;   -8.150;   -3.020;    0.000;-5.13000
 845.99;    3.660;    1.920;    0.000; 1.74000
 846.13;   -4.650;    6.280;    0.000;-10.93000
 846.27;   -6.450;    0.900;    0.000;-7.35000
 846.41;   -2.310;   -1.380;    0.000;-0.93000
 846.55;   -4.390;    2.060;    0.000;-6.45000
 846.68;   12.360;    0.890;    0.000;11.47000
 846.82;    1.040;   -0.330;    0.000; 1.37000
 846.96;   -5.580;    1.760;    0.000;-7.34000
 847.10;    3.520;   -2.830;    0.000; 6.35000
 847.24;    2.260;    1.470;    0.000; 0.79000
 847.38;    1.360;    0.110;    0.000; 1.25000
 847.52;   -1.400;   -1.350;    0.000;-0.05000
 847.66;   -4.900;    0.810;    0.000;-5.71000
 847.80;    5.550;   -1.650;    0.000; 7.20000
 847.94;    0.950;    0.870;    0.000; 0.08000
 848.08;   -5.230;    6.750;    0.000;-11.98000
 848.22;   -4.840;   -1.440;    0.000;-3.40000
 848.36;   -0.140;    0.370;    0.000;-0.51000
 848.50;    0.040;    8.240;    0.000;-8.20000
 848.64;    5.200;    5.590;    0.000;-0.39000
 848.78;    0.510;    4.000;    0.000;-3.49000
 848.92;    7.330;   -3.770;    0.000;11.10000
 849.06;    2.740;    6.430;    0.000;-3.69000
 849.20;   -0.700;    0.910;    0.000;-1.61000
 849.34;   -5.240;    2.980;    0.000;-8.22000
 849.47;   -2.470;    1.020;    0.000;-3.49000
 849.61;    3.300;    8.620;    0.000;-5.32000
 849.75;   -2.170;    1.470;    0.000;-3.64000
 849.89;    4.610;    5.830;    0.000;-1.22000
 850.03;    5.510;    1.000;    0.000; 4.51000
 850.17;   -4.740;    0.280;    0.000;-5.02000
 850.31;    2.560;   -0.420;    0.000; 2.98000
 850.45;    0.460;    7.290;    0.000;-6.83000
 850.59;   -2.400;   -0.860;    0.000;-1.54000
 850.73;   -5.820;   -1.080;    0.000;-4.74000
 850.87;    4.410;   -1.360;    0.000; 5.77000
 851.01;    0.630;    4.240;    0.000;-3.61000
 851.15;   -0.610;   -2.620;    0.000; 2.01000
 851.29;   -0.250;    1.910;    0.000;-2.16000
 851.42;    1.670;   -2.760;    0.000; 4.43000
 851.56;   -2.050;   -4.930;    0.000; 2.88000
 851.70;   10.860;   -2.770;    0.000;13.63000
 851.84;   71.090;   -4.890;    0.000;75.98000
 851.98;  146.370;   -0.690;    0.000;147.06000
 852.12;   59.400;    2.860;    0.000;56.54000
 852.26;   16.410;   -1.370;    0.000;17.78000
 852.40;    7.270;   -0.510;    0.000; 7.78000
 852.54;   -1.010;   -3.190;    0.000; 2.18000
 852.68;    6.680;    0.350;    0.000; 6.33000
 852.82;   -2.230;    3.330;    0.000;-5.56000
 852.96;   -3.840;   10.570;    0.000;-14.41000
 853.09;   -0.390;    2.260;    0.000;-2.65000
 853.23;   -1.310;    1.790;    0.000;-3.10000
 853.37;   -1.350;   -4.770;    0.000; 3.42000
 853.51;    4.450;    7.210;    0.000;-2.76000
 853.65;    2.280;    7.660;    0.000;-5.38000
 853.79;   -0.340;    8.520;    0.000;-8.86000
 853.93;   -3.470;    1.490;    0.000;-4.96000
 854.07;   -0.790;    3.340;    0.000;-4.13000
 854.21;    4.570;    7.080;    0.000;-2.51000
 854.35;    0.100;    7.650;    0.000;-7.55000
 854.49;    2.740;   -0.980;    0.000; 3.72000
 854.62;   -1.160;    8.010;    0.000;-9.17000
 854.76;    1.990;   -2.420;    0.000; 4.41000
 854.90;   -1.900;    1.050;    0.000;-2.95000
 855.04;   -0.400;    0.420;    0.000;-0.82000
 855.18;    2.620;    4.510;    0.000;-1.89000
 855.32;   -0.700;   -6.740;    0.000; 6.04000
 855.46;   -4.080;    1.920;    0.000;-6.00000
 855.60;   -5.030;    3.650;    0.000;-8.68000
 855.74;    4.270;    3.500;    0.000; 0.77000
 855.87;   -1.160;   -4.840;    0.000; 3.68000
 856.01;   -7.210;   -3.980;    0.000;-3.23000
 856.15;   -5.770;    3.090;    0.000;-8.86000
 856.29;   -3.080;    2.900;    0.000;-5.98000
 856.43;   -6.590;    8.560;    0.000;-15.15000
 856.57;    0.820;    3.830;    0.000;-3.01000
 856.71;   -0.930;   -8.430;    0.000; 7.50000
 856.85;    4.730;    6.330;    0.000;-1.60000
 856.99;   -1.180;    1.980;    0.000;-3.16000
 857.12;    5.890;    1.560;    0.000; 4.33000
 857.26;   -1.070;    2.400;    0.000;-3.47000
 857.40;    8.690;    7.460;    0.000; 1.23000
 857.54;    3.730;    6.280;    0.000;-2.55000
 857.68;    7.370;    7.950;    0.000;-0.58000
 857.82;   -0.730;    6.610;    0.000;-7.34000
 857.96;   -2.300;    9.570;    0.000;-11.87000
 858.10;    0.320;   -0.390;    0.000; 0.71000
 858.23;    1.910;    0.190;    0.000; 1.72000
 858.37;   -2.760;   -2.090;    0.000;-0.67000
 858.51;   -3.960;    5.480;    0.000;-9.44000
 858.65;    3.210;    1.800;    0.000; 1.41000
 858.79;   -0.050;    0.280;    0.000;-0.33000
 858.93;    2.800;   -4.940;    0.000; 7.74000
 859.07;   -3.020;    1.730;    0.000;-4.75000
 859.20;    7.840;    5.130;    0.000; 2.71000
 859.34;   -4.960;   -3.120;    0.000;-1.84000
 859.48;   -2.520;   -7.660;    0.000; 5.14000

