test
Integration time [ms]:   1.500
Averaging Nr. [scans]: 100
Smoothing Nr. [pixels]: 0
Data measured with spectrometer [name]: 1804344U2
Wave   ;Sample   ;Dark     ;Reference;Scope Corrected for Dark
[nm]   ;[counts] ;[counts] ;[counts] 

 294.45;    5.255;    0.570;    0.000; 4.68499
 294.62;    6.400;    0.520;    0.000; 5.88038
 294.79;    5.076;   -0.570;    0.000; 5.64638
 294.96;    3.008;   -4.310;    0.000; 7.31811
 295.13;    3.930;   -4.290;    0.000; 8.21952
 295.29;   12.271;    6.230;    0.000; 6.04097
 295.46;   -1.432;    0.900;    0.000;-2.33221
 295.63;   -5.881;  -11.370;    0.000; 5.48934
 295.80;   12.094;   -0.220;    0.000;12.31422
 295.97;   -0.976;    1.070;    0.000;-2.04575
 296.14;    5.329;   -8.190;    0.000;13.51869
 296.30;   -1.448;   -2.120;    0.000; 0.67223
 296.47;    1.857;   -4.330;    0.000; 6.18702
 296.64;   -0.303;   -3.570;    0.000; 3.26720
 296.81;    8.551;    4.830;    0.000; 3.72115
 296.98;   10.736;   -3.980;    0.000;14.71586
 297.14;   18.334;   -8.150;    0.000;26.48408
 297.31;    7.179;   -2.170;    0.000; 9.34940
 297.48;   -0.466;    1.100;    0.000;-1.56632
 297.65;    2.597;   -0.300;    0.000; 2.89710
 297.82;    1.345;    2.910;    0.000;-1.56533
 297.99;    2.447;   -8.550;    0.000;10.99686
 298.15;   11.115;    2.060;    0.000; 9.05489
 298.32;    2.187;    2.220;    0.000;-0.03316
 298.49;    5.368;    1.020;    0.000; 4.34821
 298.66;   -1.592;    0.270;    0.000;-1.86153
 298.83;    0.364;   -2.580;    0.000; 2.94364
 298.99;   -3.804;    2.010;    0.000;-5.81443
 299.16;   -1.893;   -3.160;    0.000; 1.26730
 299.33;   -0.952;    3.650;    0.000;-4.60225
 299.50;    5.568;   -0.880;    0.000; 6.44819
 299.67;    4.216;   -7.380;    0.000;11.59624
 299.83;    3.678;    0.890;    0.000; 2.78754
 300.00;    2.826;   -3.010;    0.000; 5.83628
 300.17;    2.699;   -1.730;    0.000; 4.42883
 300.34;   -0.945;   -5.390;    0.000; 4.44521
 300.51;    3.093;    5.160;    0.000;-2.06730
 300.68;    6.271;   -0.180;    0.000; 6.45109
 300.84;    4.347;   -0.970;    0.000; 5.31748
 301.01;   -1.758;    4.430;    0.000;-6.18765
 301.18;    8.066;    3.130;    0.000; 4.93594
 301.35;    1.031;   -7.880;    0.000; 8.91076
 301.52;   -1.788;    0.170;    0.000;-1.95795
 301.68;    9.033;   -1.280;    0.000;10.31296
 301.85;    3.878;   -0.750;    0.000; 4.62821
 302.02;    2.192;   -3.620;    0.000; 5.81229
 302.19;    4.562;   -6.620;    0.000;11.18249
 302.36;    4.713;    0.840;    0.000; 3.87260
 302.52;   17.122;    5.450;    0.000;11.67233
 302.69;   14.510;    1.780;    0.000;12.73036
 302.86;   -1.873;    0.760;    0.000;-2.63306
 303.03;    5.412;    3.740;    0.000; 1.67173
 303.20;    4.093;    5.140;    0.000;-1.04749
 303.36;    1.564;  -11.530;    0.000;13.09356
 303.53;    4.606;   -5.010;    0.000; 9.61616
 303.70;    4.811;    0.060;    0.000; 4.75119
 303.87;    2.741;    1.500;    0.000; 1.24105
 304.04;   -1.779;    4.470;    0.000;-6.24869
 304.20;    4.197;   -1.320;    0.000; 5.51726
 304.37;    4.081;   -5.860;    0.000; 9.94093
 304.54;    2.575;   -2.690;    0.000; 5.26535
 304.71;    8.604;    1.780;    0.000; 6.82364
 304.88;    1.273;    0.640;    0.000; 0.63334
 305.04;    1.581;   -1.480;    0.000; 3.06109
 305.21;    6.668;    5.210;    0.000; 1.45754
 305.38;   -3.440;   -4.820;    0.000; 1.38028
 305.55;    5.148;    0.060;    0.000; 5.08791
 305.71;   -2.243;    0.560;    0.000;-2.80252
 305.88;    1.870;   -6.850;    0.000; 8.72048
 306.05;    1.646;    6.020;    0.000;-4.37356
 306.22;    5.483;    0.620;    0.000; 4.86334
 306.39;   -1.835;   -1.690;    0.000;-0.14469
 306.55;   -1.756;    2.030;    0.000;-3.78566
 306.72;   -0.852;   -2.320;    0.000; 1.46841
 306.89;    3.069;    5.970;    0.000;-2.90050
 307.06;   -0.433;   -1.320;    0.000; 0.88678
 307.23;   12.530;    7.440;    0.000; 5.09046
 307.39;   10.357;   -2.770;    0.000;13.12680
 307.56;    5.455;    3.540;    0.000; 1.91469
 307.73;   -1.021;   -1.830;    0.000; 0.80879
 307.90;    2.368;    3.370;    0.000;-1.00181
 308.06;    4.543;    2.710;    0.000; 1.83296
 308.23;    6.436;    6.770;    0.000;-0.33445
 308.40;   -2.908;    5.750;    0.000;-8.65805
 308.57;    8.911;    6.030;    0.000; 2.88078
 308.74;    0.470;   -6.500;    0.000; 6.97006
 308.90;    3.106;   -0.860;    0.000; 3.96630
 309.07;    4.393;    3.810;    0.000; 0.58260
 309.24;    0.898;    0.290;    0.000; 0.60762
 309.41;   -3.051;    1.340;    0.000;-4.39089
 309.57;    5.959;   -8.120;    0.000;14.07875
 309.74;    0.677;   -0.390;    0.000; 1.06654
 309.91;    6.044;    0.870;    0.000; 5.17382
 310.08;   -0.578;    0.770;    0.000;-1.34767
 310.25;   -7.590;   -5.800;    0.000;-1.78956
 310.41;    2.646;   -4.910;    0.000; 7.55622
 310.58;   -0.518;   -3.270;    0.000; 2.75151
 310.75;    4.804;    1.520;    0.000; 3.28427
 310.92;    0.790;    0.870;    0.000;-0.08044
 311.08;   -0.549;   -3.990;    0.000; 3.44087
 311.25;    5.741;   -6.170;    0.000;11.91109
 311.42;   -2.463;   -2.080;    0.000;-0.38348
 311.59;    1.863;   -0.190;    0.000; 2.05324
 311.76;    5.894;   -4.320;    0.000;10.21437
 311.92;    6.009;   -2.050;    0.000; 8.05938
 312.09;    9.182;    3.110;    0.000; 6.07225
 312.26;   12.318;   -4.490;    0.000;16.80843
 312.43;   32.693;   -3.480;    0.000;36.17296
 312.59;   76.260;   -5.860;    0.000;82.12040
 312.76;  175.251;    4.890;    0.000;170.36133
 312.93;  322.550;    4.780;    0.000;317.76974
 313.10;  180.367;   -0.410;    0.000;180.77650
 313.26;  176.114;    4.000;    0.000;172.11366
 313.43;  387.090;   -7.050;    0.000;394.13969
 313.60;  402.911;   -3.980;    0.000;406.89110
 313.77;   86.864;   -1.940;    0.000;88.80385
 313.94;   15.023;    2.740;    0.000;12.28346
 314.10;    3.118;   -1.350;    0.000; 4.46843
 314.27;   10.172;   -7.230;    0.000;17.40227
 314.44;    6.278;    5.030;    0.000; 1.24819
 314.61;    2.423;   -3.550;    0.000; 5.97300
 314.77;  -13.218;   -0.430;    0.000;-12.78771
 314.94;    3.312;   -6.300;    0.000; 9.61197
 315.11;   -4.929;   -1.620;    0.000;-3.30932
 315.28;    7.897;   -5.170;    0.000;13.06666
 315.44;   -0.451;   -2.900;    0.000; 2.44891
 315.61;    3.279;    0.660;    0.000; 2.61919
 315.78;   -8.050;    8.570;    0.000;-16.62038
 315.95;    0.247;    2.400;    0.000;-2.15310
 316.11;    2.714;    1.960;    0.000; 0.75427
 316.28;    0.101;   -2.160;    0.000; 2.26050
 316.45;    3.951;   -1.250;    0.000; 5.20135
 316.62;    5.046;    1.050;    0.000; 3.99551
 316.78;   -6.406;   -1.380;    0.000;-5.02644
 316.95;   10.015;    3.980;    0.000; 6.03495
 317.12;    0.080;    0.140;    0.000;-0.06022
 317.29;   -3.040;   -3.580;    0.000; 0.54048
 317.45;    1.846;   -2.070;    0.000; 3.91622
 317.62;    3.345;    0.640;    0.000; 2.70450
 317.79;   -2.275;   -4.320;    0.000; 2.04461
 317.96;    1.468;    1.100;    0.000; 0.36752
 318.12;    1.919;   -4.460;    0.000; 6.37901
 318.29;   11.240;    0.970;    0.000;10.26984
 318.46;   -0.906;   -4.030;    0.000; 3.12427
 318.63;   -5.420;   -3.100;    0.000;-2.31996
 318.79;    0.358;   -2.340;    0.000; 2.69833
 318.96;    5.908;    0.010;    0.000; 5.89823
 319.13;    4.186;    0.970;    0.000; 3.21610
 319.30;    2.446;    7.110;    0.000;-4.66372
 319.46;    0.445;   -2.930;    0.000; 3.37529
 319.63;    4.146;   -3.370;    0.000; 7.51634
 319.80;   -0.933;   -0.550;    0.000;-0.38348
 319.97;    9.508;   -4.060;    0.000;13.56841
 320.13;   -2.046;   -1.720;    0.000;-0.32608
 320.30;   -0.794;   -2.300;    0.000; 1.50595
 320.47;   -4.600;   -5.410;    0.000; 0.81016
 320.64;    5.976;    0.560;    0.000; 5.41553
 320.80;    3.800;   -0.040;    0.000; 3.83960
 320.97;    3.345;   -9.370;    0.000;12.71525
 321.14;   -3.459;   -0.780;    0.000;-2.67865
 321.31;    2.257;   -1.770;    0.000; 4.02658
 321.47;   -5.811;    4.610;    0.000;-10.42103
 321.64;    3.200;    2.560;    0.000; 0.63976
 321.81;    4.361;   -3.050;    0.000; 7.41109
 321.97;    0.526;   -4.040;    0.000; 4.56603
 322.14;    5.401;   -2.900;    0.000; 8.30076
 322.31;   -0.268;    1.210;    0.000;-1.47825
 322.48;   -4.365;   -5.220;    0.000; 0.85525
 322.64;    0.034;   -2.370;    0.000; 2.40442
 322.81;   -0.106;   -3.960;    0.000; 3.85356
 322.98;    4.343;   -1.020;    0.000; 5.36310
 323.15;    0.147;   -0.150;    0.000; 0.29706
 323.31;   -0.639;    6.730;    0.000;-7.36905
 323.48;   -1.522;   -2.310;    0.000; 0.78817
 323.65;    9.405;   -0.500;    0.000; 9.90487
 323.82;    0.160;   -0.440;    0.000; 0.60040
 323.98;   10.937;   -4.740;    0.000;15.67676
 324.15;    5.492;   -1.620;    0.000; 7.11201
 324.32;   -2.854;    1.150;    0.000;-4.00391
 324.48;   -0.370;    1.210;    0.000;-1.58016
 324.65;   -4.847;   -1.470;    0.000;-3.37728
 324.82;    4.672;   -0.450;    0.000; 5.12191
 324.99;    4.818;   -2.720;    0.000; 7.53845
 325.15;   -6.011;    3.490;    0.000;-9.50066
 325.32;    3.062;    3.610;    0.000;-0.54779
 325.49;    2.962;   -1.950;    0.000; 4.91159
 325.65;    4.501;    4.000;    0.000; 0.50111
 325.82;    0.922;    0.490;    0.000; 0.43195
 325.99;    4.274;   -3.050;    0.000; 7.32370
 326.16;   -2.087;    3.850;    0.000;-5.93706
 326.32;    5.580;   -4.280;    0.000; 9.86048
 326.49;    0.747;   -3.640;    0.000; 4.38678
 326.66;    4.987;   -1.730;    0.000; 6.71698
 326.83;   -2.626;   -3.710;    0.000; 1.08394
 326.99;   -4.638;   -0.420;    0.000;-4.21795
 327.16;    2.806;   -2.420;    0.000; 5.22571
 327.33;    6.338;   -2.340;    0.000; 8.67758
 327.49;   -1.027;    1.280;    0.000;-2.30732
 327.66;    8.959;   -5.260;    0.000;14.21950
 327.83;   -3.274;   -1.910;    0.000;-1.36437
 328.00;    9.549;   -2.320;    0.000;11.86853
 328.16;   -2.455;    1.140;    0.000;-3.59475
 328.33;    4.283;    1.580;    0.000; 2.70310
 328.50;    3.349;    0.890;    0.000; 2.45909
 328.66;    5.551;    0.600;    0.000; 4.95105
 328.83;    0.273;    4.990;    0.000;-4.71678
 329.00;    0.585;   -2.810;    0.000; 3.39453
 329.17;   12.681;   -4.000;    0.000;16.68095
 329.33;    4.455;   -2.280;    0.000; 6.73469
 329.50;    9.906;   -4.650;    0.000;14.55616
 329.67;    7.894;   -4.390;    0.000;12.28366
 329.83;    4.006;    2.620;    0.000; 1.38646
 330.00;   12.479;    0.080;    0.000;12.39944
 330.17;    0.140;   -2.580;    0.000; 2.71954
 330.34;   12.928;   -6.350;    0.000;19.27791
 330.50;    7.910;   -9.540;    0.000;17.44998
 330.67;    4.840;    0.630;    0.000; 4.21016
 330.84;    6.309;   -3.740;    0.000;10.04909
 331.00;    5.123;   -1.340;    0.000; 6.46266
 331.17;    4.512;   -0.530;    0.000; 5.04245
 331.34;   -0.614;   -5.650;    0.000; 5.03563
 331.50;   -4.568;   -2.480;    0.000;-2.08823
 331.67;    3.105;    3.250;    0.000;-0.14475
 331.84;    8.542;    6.270;    0.000; 2.27175
 332.01;    1.902;    5.080;    0.000;-3.17817
 332.17;    5.441;   -0.400;    0.000; 5.84099
 332.34;    1.630;   -2.450;    0.000; 4.07956
 332.51;    1.812;  -11.260;    0.000;13.07187
 332.67;    1.793;    2.670;    0.000;-0.87676
 332.84;    5.519;   -3.010;    0.000; 8.52934
 333.01;   -1.914;    1.680;    0.000;-3.59445
 333.17;    8.013;    2.590;    0.000; 5.42300
 333.34;   -1.633;   -2.480;    0.000; 0.84662
 333.51;    1.197;    3.330;    0.000;-2.13318
 333.68;    9.648;   -1.800;    0.000;11.44847
 333.84;   11.684;    0.420;    0.000;11.26433
 334.01;   33.202;   -3.780;    0.000;36.98175
 334.18;   81.374;    0.230;    0.000;81.14418
 334.34;  155.488;   -3.520;    0.000;159.00820
 334.51;  188.266;   -0.720;    0.000;188.98619
 334.68;   52.888;   -1.030;    0.000;53.91795
 334.84;    9.910;   -1.070;    0.000;10.98014
 335.01;   11.641;   -0.220;    0.000;11.86074
 335.18;    0.055;    3.790;    0.000;-3.73535
 335.34;    0.719;    0.170;    0.000; 0.54909
 335.51;   -2.426;    0.910;    0.000;-3.33604
 335.68;    6.376;   -1.630;    0.000; 8.00620
 335.85;    7.661;   -2.080;    0.000; 9.74078
 336.01;    4.010;   -0.530;    0.000; 4.54032
 336.18;    5.853;   -8.330;    0.000;14.18268
 336.35;    5.340;   -0.500;    0.000; 5.83984
 336.51;    1.569;   -0.570;    0.000; 2.13911
 336.68;   -3.041;   -2.350;    0.000;-0.69143
 336.85;    3.286;    3.510;    0.000;-0.22423
 337.01;   14.178;    1.760;    0.000;12.41797
 337.18;    6.499;    0.240;    0.000; 6.25950
 337.35;    3.205;    1.420;    0.000; 1.78503
 337.51;    8.111;    2.990;    0.000; 5.12097
 337.68;   13.698;    1.480;    0.000;12.21831
 337.85;    9.454;   -6.760;    0.000;16.21390
 338.01;    8.071;   -6.410;    0.000;14.48143
 338.18;   -1.168;   -1.190;    0.000; 0.02195
 338.35;   -3.611;    1.310;    0.000;-4.92113
 338.51;   -1.927;   -1.980;    0.000; 0.05278
 338.68;   -3.253;   -0.770;    0.000;-2.48280
 338.85;    2.135;    4.470;    0.000;-2.33507
 339.01;    0.412;    3.570;    0.000;-3.15789
 339.18;    4.701;   -5.980;    0.000;10.68080
 339.35;    8.150;   -1.210;    0.000; 9.35982
 339.52;   10.538;   -2.140;    0.000;12.67813
 339.68;    7.322;    1.070;    0.000; 6.25229
 339.85;   -2.028;    0.990;    0.000;-3.01841
 340.02;   -0.079;   -3.130;    0.000; 3.05145
 340.18;    5.594;   -5.590;    0.000;11.18358
 340.35;    5.858;   -0.290;    0.000; 6.14787
 340.52;    4.773;   -0.680;    0.000; 5.45304
 340.68;    4.263;   -9.200;    0.000;13.46328
 340.85;    8.151;   -1.040;    0.000; 9.19105
 341.02;    6.942;    6.800;    0.000; 0.14197
 341.18;   -1.113;   -0.940;    0.000;-0.17282
 341.35;    9.136;    0.130;    0.000; 9.00589
 341.52;    4.904;    0.130;    0.000; 4.77439
 341.68;   -0.986;   -9.070;    0.000; 8.08360
 341.85;    1.244;   -4.820;    0.000; 6.06396
 342.02;   -1.479;   -2.760;    0.000; 1.28115
 342.18;    5.946;    1.520;    0.000; 4.42608
 342.35;   11.421;    3.630;    0.000; 7.79135
 342.52;    0.447;   -4.770;    0.000; 5.21656
 342.68;    2.521;   -5.140;    0.000; 7.66109
 342.85;    7.048;    1.760;    0.000; 5.28819
 343.02;   -0.918;   -7.750;    0.000; 6.83243
 343.18;    2.908;   -4.940;    0.000; 7.84781
 343.35;    4.693;   -9.280;    0.000;13.97286
 343.52;    2.058;   -6.330;    0.000; 8.38785
 343.68;    9.907;   -4.180;    0.000;14.08680
 343.85;    1.850;    1.790;    0.000; 0.05974
 344.02;   12.456;  -12.110;    0.000;24.56563
 344.18;    0.082;   -7.820;    0.000; 7.90179
 344.35;    2.217;   -3.240;    0.000; 5.45728
 344.51;   -6.939;   -0.660;    0.000;-6.27871
 344.68;   10.059;    2.390;    0.000; 7.66853
 344.85;    7.482;   -1.330;    0.000; 8.81227
 345.01;    2.470;    3.320;    0.000;-0.84954
 345.18;    1.206;   -2.960;    0.000; 4.16589
 345.35;    3.482;   -5.220;    0.000; 8.70169
 345.51;   -0.523;   -4.880;    0.000; 4.35686
 345.68;   -2.214;   -4.120;    0.000; 1.90551
 345.85;    1.881;    0.420;    0.000; 1.46070
 346.01;    7.186;   -7.340;    0.000;14.52561
 346.18;   -5.421;   -0.340;    0.000;-5.08121
 346.35;    5.585;   -3.470;    0.000; 9.05497
 346.51;    3.982;    1.260;    0.000; 2.72199
 346.68;    0.718;   -1.190;    0.000; 1.90827
 346.85;   -1.380;   -2.130;    0.000; 0.74994
 347.01;    5.647;   -7.070;    0.000;12.71674
 347.18;   -4.011;   -0.890;    0.000;-3.12064
 347.35;    9.307;   -4.370;    0.000;13.67738
 347.51;   -5.124;   -0.400;    0.000;-4.72350
 347.68;    8.991;   -5.530;    0.000;14.52125
 347.85;    6.826;    1.670;    0.000; 5.15620
 348.01;   -2.155;    4.240;    0.000;-6.39533
 348.18;    6.471;    1.140;    0.000; 5.33139
 348.34;    1.678;    1.040;    0.000; 0.63785
 348.51;    2.570;    3.380;    0.000;-0.81048
 348.68;    4.635;   -0.390;    0.000; 5.02527
 348.84;    3.780;    3.200;    0.000; 0.58010
 349.01;   11.572;    0.420;    0.000;11.15203
 349.18;   -2.559;   -5.890;    0.000; 3.33050
 349.34;    4.017;   -5.010;    0.000; 9.02694
 349.51;    0.796;   -5.450;    0.000; 6.24561
 349.68;    4.646;   -7.590;    0.000;12.23595
 349.84;    6.433;   -5.910;    0.000;12.34302
 350.01;    6.941;    4.340;    0.000; 2.60139
 350.18;   -2.956;   -1.230;    0.000;-1.72608
 350.34;    1.379;    0.320;    0.000; 1.05929
 350.51;    3.363;   -6.890;    0.000;10.25332
 350.67;    5.155;   -3.120;    0.000; 8.27471
 350.84;    4.879;   -0.170;    0.000; 5.04948
 351.01;    4.925;   -6.790;    0.000;11.71505
 351.17;   -2.573;   -4.740;    0.000; 2.16716
 351.34;    5.581;   -0.670;    0.000; 6.25090
 351.51;   -7.624;   -0.050;    0.000;-7.57447
 351.67;    4.918;   -1.770;    0.000; 6.68768
 351.84;   -0.775;   -7.880;    0.000; 7.10523
 352.00;    1.900;   -0.620;    0.000; 2.51980
 352.17;    7.432;    5.990;    0.000; 1.44167
 352.34;    6.686;    0.360;    0.000; 6.32632
 352.50;    1.678;   -1.890;    0.000; 3.56756
 352.67;    6.357;   -8.630;    0.000;14.98726
 352.84;    2.765;   -2.250;    0.000; 5.01501
 353.00;   11.454;   11.720;    0.000;-0.26592
 353.17;   -2.739;   -7.680;    0.000; 4.94143
 353.34;    5.687;   -2.970;    0.000; 8.65724
 353.50;    8.499;   -4.130;    0.000;12.62855
 353.67;    1.611;    2.320;    0.000;-0.70918
 353.83;   -3.836;    0.730;    0.000;-4.56638
 354.00;    8.122;   -5.000;    0.000;13.12151
 354.17;   -2.487;   -3.280;    0.000; 0.79334
 354.33;    9.900;   -8.080;    0.000;17.98022
 354.50;    2.694;   -4.320;    0.000; 7.01356
 354.66;   -3.406;   -6.250;    0.000; 2.84386
 354.83;    3.683;   -4.090;    0.000; 7.77266
 355.00;   10.822;   -1.610;    0.000;12.43169
 355.16;    3.918;   -4.750;    0.000; 8.66823
 355.33;   10.568;   -7.620;    0.000;18.18768
 355.50;    4.911;   -5.720;    0.000;10.63078
 355.66;    5.462;    1.600;    0.000; 3.86211
 355.83;   -1.014;   -4.790;    0.000; 3.77563
 355.99;    6.766;    7.150;    0.000;-0.38395
 356.16;    6.533;   -3.900;    0.000;10.43292
 356.33;    9.402;   -1.850;    0.000;11.25155
 356.49;    2.626;   -1.020;    0.000; 3.64624
 356.66;    5.114;   -6.000;    0.000;11.11364
 356.83;    5.458;   -7.540;    0.000;12.99807
 356.99;   12.423;   10.550;    0.000; 1.87274
 357.16;    0.669;    1.040;    0.000;-0.37117
 357.32;    6.718;    1.130;    0.000; 5.58835
 357.49;    0.587;    0.690;    0.000;-0.10274
 357.66;    4.945;    6.000;    0.000;-1.05473
 357.82;    6.647;   -4.590;    0.000;11.23680
 357.99;    4.161;    3.920;    0.000; 0.24084
 358.15;   -4.718;   -4.130;    0.000;-0.58831
 358.32;    5.467;    5.020;    0.000; 0.44658
 358.49;    6.364;   -2.660;    0.000; 9.02358
 358.65;    9.927;   -0.840;    0.000;10.76658
 358.82;    7.422;   -2.030;    0.000; 9.45177
 358.98;    8.336;   -5.320;    0.000;13.65628
 359.15;    5.555;   -6.520;    0.000;12.07463
 359.32;    2.255;    0.580;    0.000; 1.67525
 359.48;    7.157;   -7.980;    0.000;15.13708
 359.65;    7.159;   -7.000;    0.000;14.15948
 359.81;    8.048;   -3.190;    0.000;11.23805
 359.98;   10.725;   -0.110;    0.000;10.83535
 360.15;   -1.058;   -2.340;    0.000; 1.28193
 360.31;   14.411;    1.990;    0.000;12.42145
 360.48;    8.326;   -3.500;    0.000;11.82616
 360.64;   13.156;   -3.140;    0.000;16.29632
 360.81;    0.321;   -1.030;    0.000; 1.35068
 360.98;   13.201;   -1.440;    0.000;14.64103
 361.14;    1.706;   -4.810;    0.000; 6.51555
 361.31;    6.092;   -2.550;    0.000; 8.64235
 361.47;    8.074;   -1.790;    0.000; 9.86354
 361.64;    3.939;   -3.920;    0.000; 7.85915
 361.81;   -0.074;   -6.380;    0.000; 6.30589
 361.97;    5.433;   -1.980;    0.000; 7.41304
 362.14;    5.755;   -2.230;    0.000; 7.98487
 362.30;    3.451;    4.660;    0.000;-1.20877
 362.47;    3.198;   -0.760;    0.000; 3.95823
 362.64;    3.380;   -1.650;    0.000; 5.03012
 362.80;    3.558;   -6.850;    0.000;10.40821
 362.97;    5.887;    0.760;    0.000; 5.12690
 363.13;    7.324;    3.410;    0.000; 3.91392
 363.30;   10.423;   -6.170;    0.000;16.59274
 363.47;    6.497;   -4.280;    0.000;10.77664
 363.63;   21.197;    2.600;    0.000;18.59746
 363.80;   20.151;   -4.890;    0.000;25.04137
 363.96;   34.946;    0.750;    0.000;34.19632
 364.13;   54.458;   -6.260;    0.000;60.71817
 364.30;   80.330;   -4.790;    0.000;85.11954
 364.46;  140.576;  -12.110;    0.000;152.68634
 364.63;  255.541;   -1.150;    0.000;256.69117
 364.79;  598.361;   -4.400;    0.000;602.76133
 364.96; 2060.483;    0.310;    0.000;2060.17315
 365.12; 5224.322;   -2.740;    0.000;5227.06227
 365.29; 8351.259;    3.200;    0.000;8348.05879
 365.46; 3812.021;    0.300;    0.000;3811.72124
 365.62; 2308.450;    0.120;    0.000;2308.33020
 365.79; 2569.160;    1.300;    0.000;2567.85991
 365.95;  757.716;   -3.730;    0.000;761.44594
 366.12;  282.923;   -8.110;    0.000;291.03303
 366.29;  595.152;   -3.730;    0.000;598.88222
 366.45; 1308.588;    3.660;    0.000;1304.92752
 366.62; 1799.560;    8.570;    0.000;1790.99018
 366.78;  519.676;   -2.410;    0.000;522.08639
 366.95;   95.660;   -0.210;    0.000;95.87048
 367.11;   36.115;   -0.890;    0.000;37.00471
 367.28;   27.008;   -3.680;    0.000;30.68833
 367.45;   22.219;   -5.250;    0.000;27.46887
 367.61;   12.571;   -2.880;    0.000;15.45066
 367.78;   11.874;    3.190;    0.000; 8.68392
 367.94;   12.107;    3.830;    0.000; 8.27696
 368.11;    6.161;    4.750;    0.000; 1.41139
 368.27;   13.045;   -0.600;    0.000;13.64523
 368.44;    6.832;   -9.460;    0.000;16.29173
 368.61;    6.567;    0.270;    0.000; 6.29652
 368.77;   -1.782;    3.040;    0.000;-4.82250
 368.94;    7.516;   -2.210;    0.000; 9.72569
 369.10;    3.786;   -1.400;    0.000; 5.18559
 369.27;    7.692;   -7.510;    0.000;15.20235
 369.43;    1.398;   -2.690;    0.000; 4.08823
 369.60;    7.739;    1.740;    0.000; 5.99921
 369.77;    8.542;   -8.940;    0.000;17.48233
 369.93;    7.830;   -2.020;    0.000; 9.84988
 370.10;   10.687;   -4.480;    0.000;15.16746
 370.26;   12.265;   -8.790;    0.000;21.05475
 370.43;    6.832;    1.510;    0.000; 5.32193
 370.59;   17.344;   -4.000;    0.000;21.34376
 370.76;    7.054;   -5.510;    0.000;12.56356
 370.92;   11.981;   -5.920;    0.000;17.90058
 371.09;    7.185;   -7.770;    0.000;14.95469
 371.26;    7.123;   -4.180;    0.000;11.30310
 371.42;    4.235;   -6.360;    0.000;10.59523
 371.59;    0.716;   -0.250;    0.000; 0.96628
 371.75;    1.684;   -3.900;    0.000; 5.58402
 371.92;    9.965;    1.260;    0.000; 8.70465
 372.08;    3.342;   -4.860;    0.000; 8.20201
 372.25;    9.506;   -0.070;    0.000; 9.57632
 372.42;    4.758;   -2.110;    0.000; 6.86849
 372.58;    2.064;   -1.360;    0.000; 3.42386
 372.75;    4.022;   -2.260;    0.000; 6.28151
 372.91;    8.658;    1.840;    0.000; 6.81785
 373.08;    2.204;   -2.050;    0.000; 4.25429
 373.24;    7.116;   -4.010;    0.000;11.12590
 373.41;    1.434;   -2.320;    0.000; 3.75374
 373.57;    1.991;  -11.000;    0.000;12.99131
 373.74;   -2.016;    1.430;    0.000;-3.44563
 373.90;    8.784;   -9.560;    0.000;18.34412
 374.07;    4.913;   -7.100;    0.000;12.01306
 374.24;    4.219;   -2.030;    0.000; 6.24853
 374.40;    4.632;    5.490;    0.000;-0.85807
 374.57;   13.299;   -2.540;    0.000;15.83917
 374.73;    8.094;    1.920;    0.000; 6.17362
 374.90;    7.246;   -2.340;    0.000; 9.58597
 375.06;    7.059;   -3.410;    0.000;10.46925
 375.23;   10.690;    0.370;    0.000;10.31956
 375.39;    0.142;    3.570;    0.000;-3.42793
 375.56;    7.130;    3.650;    0.000; 3.47980
 375.73;   -0.808;    1.840;    0.000;-2.64785
 375.89;    8.047;    0.420;    0.000; 7.62730
 376.06;   -0.515;   -2.660;    0.000; 2.14513
 376.22;   -0.158;    2.450;    0.000;-2.60789
 376.39;    7.528;   -2.000;    0.000; 9.52781
 376.55;   12.104;   -1.740;    0.000;13.84440
 376.72;   -0.206;   -2.100;    0.000; 1.89400
 376.88;   11.998;   -8.660;    0.000;20.65815
 377.05;    4.721;    2.770;    0.000; 1.95082
 377.21;    6.838;   -3.920;    0.000;10.75783
 377.38;   -4.041;   -0.070;    0.000;-3.97149
 377.54;    3.838;   -2.850;    0.000; 6.68789
 377.71;    0.787;    1.410;    0.000;-0.62264
 377.88;    4.070;    5.630;    0.000;-1.55972
 378.04;    1.777;    7.800;    0.000;-6.02312
 378.21;    4.690;    2.090;    0.000; 2.60044
 378.37;    3.262;   -7.520;    0.000;10.78207
 378.54;    0.994;   -3.720;    0.000; 4.71442
 378.70;    6.368;   -0.860;    0.000; 7.22815
 378.87;    9.190;   -4.600;    0.000;13.79040
 379.03;    5.329;    0.420;    0.000; 4.90944
 379.20;   15.175;    5.390;    0.000; 9.78511
 379.36;   -1.456;   -1.120;    0.000;-0.33638
 379.53;    7.122;   -2.900;    0.000;10.02239
 379.69;    8.831;   -1.940;    0.000;10.77068
 379.86;   -0.623;    6.100;    0.000;-6.72306
 380.02;    0.515;    1.090;    0.000;-0.57539
 380.19;    5.606;   -2.550;    0.000; 8.15589
 380.36;    2.476;   -6.880;    0.000; 9.35553
 380.52;   -0.035;   -3.250;    0.000; 3.21501
 380.69;   -2.178;  -12.180;    0.000;10.00203
 380.85;    5.446;   -1.690;    0.000; 7.13581
 381.02;    2.492;   -2.740;    0.000; 5.23165
 381.18;   11.196;    0.570;    0.000;10.62628
 381.35;    4.725;   -2.280;    0.000; 7.00521
 381.51;   -2.987;    3.610;    0.000;-6.59660
 381.68;   -2.514;    3.660;    0.000;-6.17419
 381.84;    6.081;    1.170;    0.000; 4.91052
 382.01;    0.379;   -8.540;    0.000; 8.91877
 382.17;    5.141;   -0.090;    0.000; 5.23119
 382.34;   -1.373;   -9.380;    0.000; 8.00714
 382.50;   -0.043;    5.650;    0.000;-5.69336
 382.67;   -4.266;    1.510;    0.000;-5.77622
 382.83;    3.165;   -1.440;    0.000; 4.60537
 383.00;    5.253;   -4.510;    0.000; 9.76296
 383.16;   -6.345;   -7.190;    0.000; 0.84535
 383.33;   -2.075;   -2.420;    0.000; 0.34469
 383.49;    4.248;   -2.750;    0.000; 6.99795
 383.66;    2.453;    1.940;    0.000; 0.51272
 383.82;    6.784;   -0.260;    0.000; 7.04400
 383.99;    0.515;   -3.310;    0.000; 3.82475
 384.15;    3.879;   -6.470;    0.000;10.34915
 384.32;    3.260;   -2.540;    0.000; 5.79990
 384.48;    2.810;   -1.680;    0.000; 4.49034
 384.65;    2.421;   -3.060;    0.000; 5.48074
 384.82;    3.720;    0.500;    0.000; 3.21982
 384.98;   11.060;   -3.620;    0.000;14.67998
 385.15;    8.535;    2.460;    0.000; 6.07497
 385.31;   -1.807;   -8.320;    0.000; 6.51266
 385.48;    9.352;    2.460;    0.000; 6.89179
 385.64;   -0.870;   -2.420;    0.000; 1.55042
 385.81;    7.112;   -6.100;    0.000;13.21237
 385.97;    7.034;    0.940;    0.000; 6.09356
 386.14;    5.490;   -2.280;    0.000; 7.77044
 386.30;    0.189;   -8.530;    0.000; 8.71851
 386.47;    1.601;   -2.130;    0.000; 3.73054
 386.63;    1.554;   -7.290;    0.000; 8.84368
 386.80;    3.245;   -7.730;    0.000;10.97533
 386.96;    3.860;   -5.510;    0.000; 9.36974
 387.13;   -2.101;   -1.230;    0.000;-0.87137
 387.29;    3.620;   -6.160;    0.000; 9.77980
 387.46;    2.061;    2.290;    0.000;-0.22889
 387.62;   -1.899;    1.810;    0.000;-3.70853
 387.79;    7.346;   -5.200;    0.000;12.54630
 387.95;   -1.113;   -0.750;    0.000;-0.36342
 388.12;   -1.179;   -0.020;    0.000;-1.15859
 388.28;    2.463;    0.800;    0.000; 1.66258
 388.45;    8.575;    0.650;    0.000; 7.92475
 388.61;   -2.792;   -1.450;    0.000;-1.34191
 388.78;    2.955;   -4.410;    0.000; 7.36477
 388.94;    6.375;   -2.050;    0.000; 8.42467
 389.11;   -0.049;   -0.930;    0.000; 0.88090
 389.27;   -3.267;   -1.850;    0.000;-1.41730
 389.44;   -2.691;   -2.150;    0.000;-0.54081
 389.60;   -0.029;   -3.130;    0.000; 3.10076
 389.77;    5.370;   -6.890;    0.000;12.25958
 389.93;    7.389;   -1.080;    0.000; 8.46940
 390.10;   10.446;   -0.820;    0.000;11.26595
 390.26;    7.615;   -3.360;    0.000;10.97521
 390.42;    9.786;   -0.570;    0.000;10.35565
 390.59;   11.040;   -6.830;    0.000;17.86966
 390.75;   26.032;   -7.210;    0.000;33.24177
 390.92;   25.187;  -14.680;    0.000;39.86652
 391.08;   17.403;   -4.470;    0.000;21.87316
 391.25;    8.643;   -0.930;    0.000; 9.57338
 391.41;   -1.565;    0.530;    0.000;-2.09535
 391.58;   -1.101;    0.290;    0.000;-1.39054
 391.74;    1.281;   -3.380;    0.000; 4.66052
 391.91;    8.658;   -3.310;    0.000;11.96815
 392.07;   -0.144;   -1.150;    0.000; 1.00563
 392.24;    3.225;   -1.620;    0.000; 4.84457
 392.40;    5.692;   -6.900;    0.000;12.59241
 392.57;    0.306;   -4.630;    0.000; 4.93614
 392.73;    2.636;    0.090;    0.000; 2.54599
 392.90;    4.720;   10.370;    0.000;-5.64980
 393.06;   -0.479;   -1.750;    0.000; 1.27086
 393.23;    2.297;    0.390;    0.000; 1.90714
 393.39;   -0.200;   -4.590;    0.000; 4.39040
 393.56;   -2.318;  -11.700;    0.000; 9.38199
 393.72;    0.909;    4.260;    0.000;-3.35147
 393.89;    2.905;    1.220;    0.000; 1.68493
 394.05;    0.224;   -5.740;    0.000; 5.96372
 394.22;   -3.870;   -2.020;    0.000;-1.85030
 394.38;    6.372;   -1.840;    0.000; 8.21239
 394.55;    6.950;   -2.500;    0.000; 9.44978
 394.71;    1.680;   -5.810;    0.000; 7.49042
 394.87;    4.367;    1.550;    0.000; 2.81744
 395.04;    7.291;    5.520;    0.000; 1.77117
 395.20;   -0.905;    3.850;    0.000;-4.75493
 395.37;    3.854;    4.320;    0.000;-0.46566
 395.53;   -4.049;    0.370;    0.000;-4.41891
 395.70;    9.945;    0.110;    0.000; 9.83485
 395.86;   -4.530;   -9.710;    0.000; 5.18038
 396.03;    6.488;    0.320;    0.000; 6.16764
 396.19;    3.141;   -1.110;    0.000; 4.25135
 396.36;    2.177;    0.420;    0.000; 1.75692
 396.52;    4.890;   -0.060;    0.000; 4.95038
 396.69;    6.834;   -3.850;    0.000;10.68446
 396.85;    3.640;    0.390;    0.000; 3.25036
 397.02;    5.216;   -4.570;    0.000; 9.78595
 397.18;   -4.447;   -4.120;    0.000;-0.32738
 397.34;    4.347;   -2.020;    0.000; 6.36730
 397.51;   -8.502;   -1.920;    0.000;-6.58213
 397.67;    0.289;   -0.770;    0.000; 1.05927
 397.84;    2.976;    3.630;    0.000;-0.65409
 398.00;    3.834;   -0.470;    0.000; 4.30364
 398.17;    9.580;   -2.410;    0.000;11.99004
 398.33;    6.669;    3.160;    0.000; 3.50921
 398.50;   12.474;    4.680;    0.000; 7.79423
 398.66;   21.852;    2.710;    0.000;19.14207
 398.83;    8.237;   -2.710;    0.000;10.94676
 398.99;    6.116;    2.700;    0.000; 3.41630
 399.16;   -2.178;    3.240;    0.000;-5.41833
 399.32;    7.233;    1.890;    0.000; 5.34306
 399.48;   -0.189;    0.480;    0.000;-0.66930
 399.65;    7.666;    6.300;    0.000; 1.36595
 399.81;    6.288;   -0.530;    0.000; 6.81787
 399.98;   10.171;   -4.860;    0.000;15.03139
 400.14;    4.646;   -0.890;    0.000; 5.53650
 400.31;    2.898;    1.170;    0.000; 1.72849
 400.47;    8.969;    4.580;    0.000; 4.38909
 400.64;   -0.344;    3.260;    0.000;-3.60370
 400.80;    3.124;   -3.940;    0.000; 7.06396
 400.96;    5.224;   -3.140;    0.000; 8.36410
 401.13;    0.027;   -4.020;    0.000; 4.04688
 401.29;    8.148;    3.300;    0.000; 4.84847
 401.46;    4.521;   -2.720;    0.000; 7.24139
 401.62;    4.419;    3.660;    0.000; 0.75885
 401.79;    9.166;    8.110;    0.000; 1.05608
 401.95;   12.726;    6.620;    0.000; 6.10600
 402.12;    2.486;   -1.400;    0.000; 3.88559
 402.28;    8.074;   -5.710;    0.000;13.78374
 402.44;    8.077;   -1.600;    0.000; 9.67662
 402.61;   16.689;   -5.710;    0.000;22.39881
 402.77;   10.803;   -1.240;    0.000;12.04290
 402.94;   14.516;    3.210;    0.000;11.30591
 403.10;   18.062;   -0.710;    0.000;18.77203
 403.27;   21.732;    1.550;    0.000;20.18183
 403.43;   34.160;    0.310;    0.000;33.84970
 403.60;   56.154;    3.610;    0.000;52.54402
 403.76;   70.700;   -1.440;    0.000;72.13971
 403.92;  113.904;   -2.890;    0.000;116.79396
 404.09;  184.219;    0.170;    0.000;184.04938
 404.25;  349.259;   -0.220;    0.000;349.47851
 404.42;  831.736;   -5.000;    0.000;836.73560
 404.58; 3657.508;   -2.750;    0.000;3660.25830
 404.75;11145.930;    2.110;    0.000;11143.81969
 404.91;15557.921;    1.010;    0.000;15556.91090
 405.07; 4888.347;   -0.870;    0.000;4889.21668
 405.24;  712.312;    1.430;    0.000;710.88177
 405.40;  245.530;   -0.260;    0.000;245.78982
 405.57;  130.890;  -11.110;    0.000;141.99969
 405.73;   66.563;   -6.090;    0.000;72.65322
 405.90;   58.308;   -0.770;    0.000;59.07793
 406.06;   34.085;   -2.930;    0.000;37.01525
 406.22;   33.392;   -0.040;    0.000;33.43201
 406.39;   25.168;   -3.980;    0.000;29.14773
 406.55;   24.033;   -3.180;    0.000;27.21275
 406.72;   20.918;   -2.530;    0.000;23.44751
 406.88;   23.580;   -4.340;    0.000;27.92014
 407.05;   21.332;   -4.050;    0.000;25.38201
 407.21;   34.253;    8.270;    0.000;25.98302
 407.37;   49.036;   -1.700;    0.000;50.73612
 407.54;   85.885;   -6.070;    0.000;91.95464
 407.70;  297.682;    1.390;    0.000;296.29204
 407.87;  936.360;    5.730;    0.000;930.62986
 408.03; 1311.941;    0.860;    0.000;1311.08104
 408.20;  426.206;  -11.790;    0.000;437.99596
 408.36;   62.929;   -2.080;    0.000;65.00925
 408.52;   19.736;   -3.220;    0.000;22.95636
 408.69;   13.046;    5.030;    0.000; 8.01559
 408.85;   15.740;    1.030;    0.000;14.70992
 409.02;   21.018;   -0.440;    0.000;21.45823
 409.18;   13.186;    3.850;    0.000; 9.33565
 409.35;    4.708;   -5.150;    0.000; 9.85815
 409.51;    9.290;   -3.720;    0.000;13.01024
 409.67;    4.768;   -6.770;    0.000;11.53769
 409.84;    7.336;   -8.460;    0.000;15.79630
 410.00;   13.906;   -1.640;    0.000;15.54614
 410.17;   16.182;    3.520;    0.000;12.66209
 410.33;    9.250;    1.420;    0.000; 7.83046
 410.49;   13.007;    2.590;    0.000;10.41688
 410.66;    9.896;   -8.240;    0.000;18.13581
 410.82;   11.662;    0.730;    0.000;10.93177
 410.99;    6.383;   -1.310;    0.000; 7.69292
 411.15;   11.998;    3.750;    0.000; 8.24829
 411.31;    6.978;   -1.070;    0.000; 8.04769
 411.48;    9.272;    0.580;    0.000; 8.69177
 411.64;   -0.515;   -0.500;    0.000;-0.01471
 411.81;   10.832;   -1.350;    0.000;12.18205
 411.97;    3.219;    0.160;    0.000; 3.05879
 412.13;    3.210;    1.250;    0.000; 1.95980
 412.30;    5.701;    1.110;    0.000; 4.59133
 412.46;   16.963;   -6.100;    0.000;23.06340
 412.63;    3.703;    3.710;    0.000;-0.00706
 412.79;   14.388;   -7.810;    0.000;22.19756
 412.95;    2.974;   -0.050;    0.000; 3.02400
 413.12;    3.856;    2.030;    0.000; 1.82561
 413.28;    1.634;    1.570;    0.000; 0.06364
 413.45;   15.744;    7.040;    0.000; 8.70406
 413.61;   -1.660;   -0.970;    0.000;-0.68966
 413.77;   -0.581;   -3.280;    0.000; 2.69857
 413.94;    8.095;   -0.850;    0.000; 8.94455
 414.10;    2.753;   -5.840;    0.000; 8.59272
 414.27;   -0.766;    0.910;    0.000;-1.67638
 414.43;    9.334;   -1.080;    0.000;10.41366
 414.59;    3.295;    0.970;    0.000; 2.32469
 414.76;   15.341;    0.560;    0.000;14.78072
 414.92;    3.589;   -3.670;    0.000; 7.25873
 415.09;    6.205;    6.220;    0.000;-0.01531
 415.25;    8.169;   -0.980;    0.000; 9.14940
 415.41;   11.561;   -5.990;    0.000;17.55050
 415.58;    5.248;   -5.650;    0.000;10.89752
 415.74;    4.112;   -4.320;    0.000; 8.43209
 415.91;    7.749;    3.790;    0.000; 3.95909
 416.07;    7.028;   -4.130;    0.000;11.15829
 416.23;    8.439;    1.910;    0.000; 6.52879
 416.40;    4.346;    4.110;    0.000; 0.23581
 416.56;    8.396;   -1.400;    0.000; 9.79626
 416.73;    5.218;   -1.390;    0.000; 6.60756
 416.89;    1.311;   -1.010;    0.000; 2.32101
 417.05;    8.527;   -8.360;    0.000;16.88662
 417.22;    0.167;   -5.550;    0.000; 5.71720
 417.38;   -1.377;    5.260;    0.000;-6.63730
 417.54;    5.501;    0.600;    0.000; 4.90137
 417.71;    4.040;    3.060;    0.000; 0.97992
 417.87;    5.309;    2.880;    0.000; 2.42851
 418.04;    7.835;   -3.840;    0.000;11.67491
 418.20;    8.158;   -2.040;    0.000;10.19841
 418.36;    4.519;    4.200;    0.000; 0.31855
 418.53;   -0.854;    1.500;    0.000;-2.35413
 418.69;    2.899;    1.520;    0.000; 1.37875
 418.86;    6.501;    7.390;    0.000;-0.88867
 419.02;   15.597;    0.930;    0.000;14.66726
 419.18;   -1.017;   -1.440;    0.000; 0.42266
 419.35;   11.637;   -5.330;    0.000;16.96668
 419.51;    5.024;   -3.550;    0.000; 8.57402
 419.67;    1.067;    1.230;    0.000;-0.16310
 419.84;    8.566;    2.140;    0.000; 6.42583
 420.00;    7.355;    2.490;    0.000; 4.86461
 420.17;    3.035;    2.340;    0.000; 0.69483
 420.33;    8.622;   -2.130;    0.000;10.75237
 420.49;    3.016;   -2.830;    0.000; 5.84571
 420.66;   12.282;    4.130;    0.000; 8.15241
 420.82;    9.616;    3.970;    0.000; 5.64650
 420.98;    4.404;    6.460;    0.000;-2.05570
 421.15;   -0.807;    2.130;    0.000;-2.93732
 421.31;    9.594;    2.460;    0.000; 7.13370
 421.47;   -0.704;    1.930;    0.000;-2.63419
 421.64;   11.801;    1.370;    0.000;10.43052
 421.80;    3.384;    3.130;    0.000; 0.25358
 421.97;    7.509;    2.770;    0.000; 4.73853
 422.13;    6.669;   -1.670;    0.000; 8.33934
 422.29;   14.665;   -1.030;    0.000;15.69535
 422.46;    8.855;   -9.280;    0.000;18.13507
 422.62;    8.082;    3.180;    0.000; 4.90207
 422.78;    7.444;    3.510;    0.000; 3.93364
 422.95;    6.886;    6.010;    0.000; 0.87595
 423.11;    4.049;    4.410;    0.000;-0.36149
 423.27;   10.321;    1.940;    0.000; 8.38088
 423.44;    5.428;    3.780;    0.000; 1.64777
 423.60;    8.555;    6.310;    0.000; 2.24503
 423.77;    2.625;    7.960;    0.000;-5.33467
 423.93;   11.330;    8.340;    0.000; 2.99048
 424.09;    9.397;    4.430;    0.000; 4.96654
 424.26;    6.850;    0.600;    0.000; 6.24974
 424.42;    6.087;   -3.390;    0.000; 9.47694
 424.58;   11.837;    4.220;    0.000; 7.61722
 424.75;    3.454;    9.130;    0.000;-5.67606
 424.91;   10.432;    4.640;    0.000; 5.79167
 425.07;    6.186;   11.900;    0.000;-5.71382
 425.24;   11.165;   -2.010;    0.000;13.17493
 425.40;    6.909;    4.940;    0.000; 1.96913
 425.56;    5.432;   -1.390;    0.000; 6.82237
 425.73;    9.489;    2.510;    0.000; 6.97879
 425.89;   11.381;    6.250;    0.000; 5.13074
 426.05;   10.949;   -0.480;    0.000;11.42877
 426.22;    9.743;    5.520;    0.000; 4.22346
 426.38;    5.643;   -2.410;    0.000; 8.05262
 426.55;    7.587;    7.300;    0.000; 0.28740
 426.71;   12.687;   -0.080;    0.000;12.76694
 426.87;    5.960;    2.860;    0.000; 3.09952
 427.04;   13.382;    1.520;    0.000;11.86159
 427.20;    3.688;    8.390;    0.000;-4.70181
 427.36;   -2.152;    5.690;    0.000;-7.84248
 427.53;    6.910;    5.650;    0.000; 1.26014
 427.69;    2.626;   -3.690;    0.000; 6.31648
 427.85;    8.341;    2.910;    0.000; 5.43117
 428.02;   10.014;    5.600;    0.000; 4.41423
 428.18;   13.961;    0.320;    0.000;13.64054
 428.34;    0.179;    7.100;    0.000;-6.92068
 428.51;   12.724;    5.620;    0.000; 7.10402
 428.67;    9.452;   -3.930;    0.000;13.38199
 428.83;   12.184;    0.250;    0.000;11.93429
 429.00;    9.636;    7.230;    0.000; 2.40648
 429.16;    5.998;   -6.160;    0.000;12.15764
 429.32;   17.297;   -0.270;    0.000;17.56716
 429.49;    9.944;    1.740;    0.000; 8.20362
 429.65;    5.400;   -0.040;    0.000; 5.44008
 429.81;   13.341;   -0.760;    0.000;14.10076
 429.98;   10.992;    8.670;    0.000; 2.32199
 430.14;   16.979;   -1.450;    0.000;18.42857
 430.30;    5.684;    3.630;    0.000; 2.05398
 430.47;   10.617;    1.300;    0.000; 9.31716
 430.63;   14.789;    1.390;    0.000;13.39934
 430.79;   16.903;    2.340;    0.000;14.56308
 430.96;   11.875;    5.320;    0.000; 6.55491
 431.12;   20.897;   -3.440;    0.000;24.33666
 431.28;   10.546;    4.950;    0.000; 5.59640
 431.45;   12.689;    6.530;    0.000; 6.15891
 431.61;   16.204;   -2.160;    0.000;18.36390
 431.77;   17.487;   -2.380;    0.000;19.86732
 431.94;   12.349;    2.580;    0.000; 9.76859
 432.10;    9.008;   -0.110;    0.000; 9.11821
 432.26;   14.479;    2.360;    0.000;12.11903
 432.43;   16.064;   -3.600;    0.000;19.66402
 432.59;    7.720;    5.460;    0.000; 2.26012
 432.75;   13.578;   -1.100;    0.000;14.67815
 432.92;    6.647;    1.290;    0.000; 5.35694
 433.08;   12.197;    6.380;    0.000; 5.81662
 433.24;   16.113;    2.990;    0.000;13.12344
 433.41;   21.532;    0.520;    0.000;21.01243
 433.57;   29.843;    7.800;    0.000;22.04300
 433.73;   28.442;    2.720;    0.000;25.72205
 433.89;   58.062;    3.400;    0.000;54.66155
 434.06;  117.497;   -5.560;    0.000;123.05658
 434.22;  103.952;    2.530;    0.000;101.42199
 434.38;   64.365;    4.740;    0.000;59.62531
 434.55;   78.746;    4.110;    0.000;74.63646
 434.71;  165.038;    7.700;    0.000;157.33777
 434.87;  323.492;   -3.420;    0.000;326.91167
 435.04;  358.454;   -0.720;    0.000;359.17425
 435.20;  315.836;    5.550;    0.000;310.28554
 435.36;  500.506;    7.740;    0.000;492.76552
 435.53; 1049.730;    6.080;    0.000;1043.64986
 435.69; 3847.265;    2.060;    0.000;3845.20538
 435.85;17308.131;    0.950;    0.000;17307.18086
 436.02;33882.348;   -1.310;    0.000;33883.65766
 436.18;17295.334;   -5.460;    0.000;17300.79398
 436.34; 2741.654;    4.050;    0.000;2737.60430
 436.50;  700.005;    9.560;    0.000;690.44464
 436.67;  323.401;    6.590;    0.000;316.81085
 436.83;  179.795;    4.500;    0.000;175.29488
 436.99;  123.392;    2.280;    0.000;121.11175
 437.16;   82.736;    3.570;    0.000;79.16573
 437.32;   78.285;    4.000;    0.000;74.28537
 437.48;   52.233;   10.370;    0.000;41.86296
 437.65;   48.626;    3.110;    0.000;45.51555
 437.81;   44.519;    0.180;    0.000;44.33877
 437.97;   42.891;    6.190;    0.000;36.70062
 438.13;   28.426;    1.620;    0.000;26.80591
 438.30;   33.513;   -5.700;    0.000;39.21276
 438.46;   24.676;    5.750;    0.000;18.92587
 438.62;   29.439;    4.980;    0.000;24.45861
 438.79;   23.001;    3.640;    0.000;19.36062
 438.95;   33.167;    4.070;    0.000;29.09668
 439.11;   18.764;    4.930;    0.000;13.83421
 439.28;   26.709;    6.900;    0.000;19.80948
 439.44;   12.846;    7.840;    0.000; 5.00585
 439.60;   25.324;    3.980;    0.000;21.34402
 439.76;   20.155;   -1.730;    0.000;21.88523
 439.93;   15.838;    5.950;    0.000; 9.88789
 440.09;   13.114;    1.040;    0.000;12.07434
 440.25;   24.544;    1.220;    0.000;23.32368
 440.42;   21.173;    1.780;    0.000;19.39314
 440.58;   16.917;   -0.350;    0.000;17.26716
 440.74;   15.877;    5.210;    0.000;10.66702
 440.90;   20.083;    5.790;    0.000;14.29312
 441.07;   19.517;   -0.580;    0.000;20.09716
 441.23;   21.473;    6.570;    0.000;14.90254
 441.39;   15.271;    3.610;    0.000;11.66133
 441.56;   12.975;    6.190;    0.000; 6.78527
 441.72;   17.472;    0.800;    0.000;16.67225
 441.88;   18.275;    2.150;    0.000;16.12497
 442.04;    9.054;   -4.790;    0.000;13.84364
 442.21;    8.290;    7.710;    0.000; 0.57978
 442.37;   10.154;    4.550;    0.000; 5.60413
 442.53;   14.753;    1.010;    0.000;13.74304
 442.70;   10.707;   -4.240;    0.000;14.94678
 442.86;   21.578;   -0.670;    0.000;22.24756
 443.02;    6.933;    3.880;    0.000; 3.05328
 443.18;   16.634;    7.880;    0.000; 8.75432
 443.35;    7.651;    1.400;    0.000; 6.25133
 443.51;   10.694;    3.460;    0.000; 7.23431
 443.67;   18.961;    4.490;    0.000;14.47109
 443.84;   18.188;    2.480;    0.000;15.70754
 444.00;    1.415;    0.760;    0.000; 0.65519
 444.16;   13.726;    2.320;    0.000;11.40609
 444.32;   13.265;    4.060;    0.000; 9.20519
 444.49;    9.401;    3.660;    0.000; 5.74123
 444.65;   10.541;   -2.340;    0.000;12.88050
 444.81;   12.718;    1.830;    0.000;10.88819
 444.97;   13.249;    3.570;    0.000; 9.67879
 445.14;   14.697;    3.640;    0.000;11.05724
 445.30;   -2.506;   -3.140;    0.000; 0.63423
 445.46;    8.698;    1.610;    0.000; 7.08827
 445.63;    7.594;    5.970;    0.000; 1.62364
 445.79;    5.262;    4.220;    0.000; 1.04177
 445.95;   12.475;   -2.850;    0.000;15.32519
 446.11;    7.059;    1.730;    0.000; 5.32913
 446.28;    3.992;    5.140;    0.000;-1.14781
 446.44;   18.609;    7.590;    0.000;11.01945
 446.60;   16.810;    0.420;    0.000;16.38980
 446.76;   10.063;   -0.850;    0.000;10.91326
 446.93;   11.014;    1.540;    0.000; 9.47362
 447.09;    7.351;    0.250;    0.000; 7.10050
 447.25;    7.130;    1.280;    0.000; 5.84968
 447.41;   11.658;    2.510;    0.000; 9.14841
 447.58;    3.808;   -6.710;    0.000;10.51839
 447.74;   10.301;    3.080;    0.000; 7.22076
 447.90;    0.198;   -0.210;    0.000; 0.40807
 448.07;    6.926;    3.650;    0.000; 3.27565
 448.23;    6.196;   -1.250;    0.000; 7.44624
 448.39;    7.618;   -0.300;    0.000; 7.91789
 448.55;    5.606;   -6.720;    0.000;12.32618
 448.72;    6.884;    6.670;    0.000; 0.21444
 448.88;   11.329;    0.380;    0.000;10.94934
 449.04;    6.551;    0.010;    0.000; 6.54115
 449.20;    9.792;    2.740;    0.000; 7.05227
 449.37;   10.237;    1.810;    0.000; 8.42690
 449.53;    6.663;   -2.070;    0.000; 8.73262
 449.69;    8.741;    0.150;    0.000; 8.59141
 449.85;    2.444;   -2.190;    0.000; 4.63441
 450.02;    9.110;   -0.950;    0.000;10.06002
 450.18;   11.003;    4.580;    0.000; 6.42316
 450.34;   12.782;    3.320;    0.000; 9.46179
 450.50;    6.114;   -4.140;    0.000;10.25352
 450.67;   10.384;   -0.220;    0.000;10.60378
 450.83;    3.905;    1.820;    0.000; 2.08491
 450.99;    8.795;    1.280;    0.000; 7.51543
 451.15;    5.456;    3.850;    0.000; 1.60577
 451.32;   14.558;    3.790;    0.000;10.76795
 451.48;   11.121;   -0.330;    0.000;11.45072
 451.64;   10.042;   -1.690;    0.000;11.73199
 451.80;    3.108;   -3.580;    0.000; 6.68809
 451.97;    6.483;    2.840;    0.000; 3.64270
 452.13;   12.773;    6.000;    0.000; 6.77330
 452.29;    1.296;   -7.010;    0.000; 8.30555
 452.45;    8.242;    1.330;    0.000; 6.91161
 452.61;   13.733;    3.720;    0.000;10.01304
 452.78;    5.061;   -1.680;    0.000; 6.74076
 452.94;    9.089;    0.080;    0.000; 9.00859
 453.10;   10.731;    3.030;    0.000; 7.70133
 453.26;   10.375;   -1.960;    0.000;12.33527
 453.43;    3.860;    2.410;    0.000; 1.45040
 453.59;    8.152;    6.870;    0.000; 1.28237
 453.75;    4.134;    9.620;    0.000;-5.48608
 453.91;   11.849;    1.220;    0.000;10.62903
 454.08;    7.087;    3.260;    0.000; 3.82718
 454.24;    6.398;    9.870;    0.000;-3.47246
 454.40;    4.150;   -1.310;    0.000; 5.46006
 454.56;    5.597;    8.490;    0.000;-2.89278
 454.73;    9.050;    7.380;    0.000; 1.67004
 454.89;    4.951;   -4.980;    0.000; 9.93133
 455.05;    2.311;    4.020;    0.000;-1.70934
 455.21;    7.047;   -1.170;    0.000; 8.21724
 455.37;    2.793;    2.020;    0.000; 0.77270
 455.54;    5.394;   11.980;    0.000;-6.58598
 455.70;    0.443;    1.420;    0.000;-0.97744
 455.86;   13.309;    4.340;    0.000; 8.96913
 456.02;    0.971;   -2.160;    0.000; 3.13097
 456.19;    6.333;    1.930;    0.000; 4.40308
 456.35;    5.581;    1.200;    0.000; 4.38097
 456.51;    5.267;    1.120;    0.000; 4.14728
 456.67;    8.748;    5.200;    0.000; 3.54769
 456.83;   11.013;   -4.790;    0.000;15.80312
 457.00;    5.048;   -1.440;    0.000; 6.48789
 457.16;    6.109;    7.190;    0.000;-1.08073
 457.32;    2.807;    2.930;    0.000;-0.12328
 457.48;    3.313;   -2.200;    0.000; 5.51308
 457.65;    4.579;    3.880;    0.000; 0.69857
 457.81;    5.068;    7.140;    0.000;-2.07157
 457.97;    1.844;   -2.800;    0.000; 4.64386
 458.13;   14.772;   -5.140;    0.000;19.91235
 458.29;    8.162;   -1.140;    0.000; 9.30153
 458.46;    6.677;    0.080;    0.000; 6.59742
 458.62;    9.777;    7.340;    0.000; 2.43700
 458.78;    8.967;    8.140;    0.000; 0.82660
 458.94;    8.794;    4.830;    0.000; 3.96386
 459.11;    5.579;    0.690;    0.000; 4.88919
 459.27;    9.717;    4.020;    0.000; 5.69710
 459.43;    3.903;    0.670;    0.000; 3.23274
 459.59;    7.876;    7.490;    0.000; 0.38551
 459.75;    3.388;    0.780;    0.000; 2.60821
 459.92;    0.768;   -4.550;    0.000; 5.31843
 460.08;   10.342;    7.210;    0.000; 3.13241
 460.24;    8.154;    0.360;    0.000; 7.79390
 460.40;   10.401;    1.620;    0.000; 8.78086
 460.56;    4.653;   -5.330;    0.000; 9.98326
 460.73;    8.075;    5.120;    0.000; 2.95521
 460.89;    9.618;    7.370;    0.000; 2.24813
 461.05;    6.890;   -4.510;    0.000;11.40012
 461.21;    8.000;   -2.920;    0.000;10.92002
 461.37;    4.131;   -0.260;    0.000; 4.39111
 461.54;   10.767;    1.030;    0.000; 9.73678
 461.70;   16.755;    1.090;    0.000;15.66501
 461.86;    2.732;    3.110;    0.000;-0.37805
 462.02;    7.838;   -0.550;    0.000; 8.38821
 462.18;    1.346;    1.650;    0.000;-0.30417
 462.35;   12.598;   -2.690;    0.000;15.28777
 462.51;    3.993;   -0.040;    0.000; 4.03332
 462.67;    4.824;   -0.900;    0.000; 5.72431
 462.83;   11.152;    3.470;    0.000; 7.68153
 462.99;    9.163;    0.030;    0.000; 9.13334
 463.16;    4.044;    3.070;    0.000; 0.97394
 463.32;   11.859;    7.470;    0.000; 4.38909
 463.48;    3.999;   -3.430;    0.000; 7.42903
 463.64;   11.441;    0.890;    0.000;10.55084
 463.80;    2.067;    6.790;    0.000;-4.72308
 463.97;    5.910;    0.040;    0.000; 5.86952
 464.13;    9.788;    7.430;    0.000; 2.35809
 464.29;    7.877;   -0.490;    0.000; 8.36658
 464.45;   -3.205;   -1.640;    0.000;-1.56481
 464.61;   15.070;    8.550;    0.000; 6.52016
 464.77;    7.345;    5.030;    0.000; 2.31467
 464.94;   10.262;   -0.780;    0.000;11.04165
 465.10;    5.787;    4.310;    0.000; 1.47682
 465.26;   14.671;    0.120;    0.000;14.55147
 465.42;   -3.370;    1.620;    0.000;-4.99036
 465.58;    6.497;    9.910;    0.000;-3.41312
 465.75;    3.270;    6.170;    0.000;-2.89992
 465.91;    4.609;    5.110;    0.000;-0.50050
 466.07;    6.183;    1.180;    0.000; 5.00326
 466.23;   12.616;   -7.260;    0.000;19.87563
 466.39;    5.809;    0.830;    0.000; 4.97899
 466.56;    4.182;    5.200;    0.000;-1.01793
 466.72;    8.599;    2.680;    0.000; 5.91873
 466.88;    5.222;   -1.030;    0.000; 6.25211
 467.04;   14.740;   -1.630;    0.000;16.37002
 467.20;    5.184;   11.930;    0.000;-6.74572
 467.36;    6.609;    1.490;    0.000; 5.11869
 467.53;    8.475;    1.220;    0.000; 7.25537
 467.69;    1.183;   -8.750;    0.000; 9.93316
 467.85;    4.662;   -1.730;    0.000; 6.39239
 468.01;    1.481;   -5.530;    0.000; 7.01091
 468.17;    9.837;   -5.510;    0.000;15.34730
 468.33;    1.817;    4.290;    0.000;-2.47308
 468.50;    8.800;   -2.250;    0.000;11.05036
 468.66;    7.937;   -1.170;    0.000; 9.10708
 468.82;   10.829;   -2.640;    0.000;13.46851
 468.98;    2.137;    3.270;    0.000;-1.13318
 469.14;   11.999;   -0.770;    0.000;12.76950
 469.30;    4.682;    1.660;    0.000; 3.02169
 469.47;    1.382;   -3.380;    0.000; 4.76209
 469.63;    3.642;   -2.580;    0.000; 6.22173
 469.79;    5.834;    4.580;    0.000; 1.25438
 469.95;    0.196;    7.890;    0.000;-7.69390
 470.11;   -0.427;    1.290;    0.000;-1.71660
 470.27;   -2.100;    2.830;    0.000;-4.92958
 470.44;    5.961;    6.510;    0.000;-0.54893
 470.60;   -3.727;    2.840;    0.000;-6.56670
 470.76;    8.148;    2.480;    0.000; 5.66795
 470.92;    7.016;   -2.250;    0.000; 9.26557
 471.08;   15.770;   -2.900;    0.000;18.67046
 471.24;    1.428;    1.970;    0.000;-0.54217
 471.41;    7.213;    2.510;    0.000; 4.70340
 471.57;    5.999;   -0.320;    0.000; 6.31907
 471.73;    7.948;    3.190;    0.000; 4.75785
 471.89;    4.292;    3.050;    0.000; 1.24229
 472.05;    6.347;    9.390;    0.000;-3.04308
 472.21;    6.225;   -6.810;    0.000;13.03547
 472.38;    8.537;    3.280;    0.000; 5.25672
 472.54;    2.071;    6.930;    0.000;-4.85895
 472.70;    3.936;   -4.670;    0.000; 8.60632
 472.86;    2.726;   -4.330;    0.000; 7.05648
 473.02;    0.473;    2.880;    0.000;-2.40726
 473.18;    5.343;    2.380;    0.000; 2.96262
 473.34;    6.734;   -1.130;    0.000; 7.86352
 473.51;   -3.430;   11.300;    0.000;-14.73048
 473.67;    4.385;    2.180;    0.000; 2.20497
 473.83;    9.473;    1.640;    0.000; 7.83294
 473.99;    5.252;   -1.970;    0.000; 7.22171
 474.15;    5.823;    1.480;    0.000; 4.34290
 474.31;    4.543;    1.040;    0.000; 3.50340
 474.47;   -5.139;   -1.430;    0.000;-3.70932
 474.64;    4.158;    0.410;    0.000; 3.74819
 474.80;   -2.327;    5.520;    0.000;-7.84674
 474.96;    3.926;    2.570;    0.000; 1.35650
 475.12;   -0.317;   -3.090;    0.000; 2.77268
 475.28;   12.844;   -0.210;    0.000;13.05431
 475.44;    8.784;    6.150;    0.000; 2.63398
 475.60;    6.649;   -4.180;    0.000;10.82887
 475.77;    2.594;    3.870;    0.000;-1.27581
 475.93;    2.556;    7.400;    0.000;-4.84380
 476.09;    1.212;   -2.290;    0.000; 3.50171
 476.25;   -1.414;    5.910;    0.000;-7.32405
 476.41;   -3.281;    4.040;    0.000;-7.32121
 476.57;    6.761;    1.600;    0.000; 5.16143
 476.73;    8.306;    2.280;    0.000; 6.02559
 476.90;    4.680;    3.070;    0.000; 1.60970
 477.06;    7.651;   -0.630;    0.000; 8.28080
 477.22;   12.386;    7.090;    0.000; 5.29595
 477.38;    4.264;   -0.100;    0.000; 4.36427
 477.54;    5.750;    4.120;    0.000; 1.63046
 477.70;    1.751;   -3.310;    0.000; 5.06143
 477.86;   11.751;   -1.950;    0.000;13.70068
 478.03;    3.689;    7.310;    0.000;-3.62056
 478.19;    8.329;    3.560;    0.000; 4.76851
 478.35;    2.201;   -2.430;    0.000; 4.63131
 478.51;    8.227;    1.810;    0.000; 6.41700
 478.67;    5.168;    0.210;    0.000; 4.95752
 478.83;    7.466;   -6.880;    0.000;14.34555
 478.99;   10.359;   -9.770;    0.000;20.12911
 479.15;    0.274;    0.960;    0.000;-0.68554
 479.32;   -0.946;    7.410;    0.000;-8.35567
 479.48;    7.723;    1.580;    0.000; 6.14298
 479.64;    1.915;    2.560;    0.000;-0.64515
 479.80;    7.153;    3.530;    0.000; 3.62348
 479.96;    1.618;    2.090;    0.000;-0.47161
 480.12;    2.708;    4.400;    0.000;-1.69187
 480.28;    3.732;   -5.080;    0.000; 8.81165
 480.44;    4.490;    0.100;    0.000; 4.38986
 480.61;   -3.744;   -3.180;    0.000;-0.56384
 480.77;    5.639;   -3.860;    0.000; 9.49885
 480.93;    0.353;   -1.480;    0.000; 1.83268
 481.09;    9.436;    3.800;    0.000; 5.63561
 481.25;   10.869;    0.830;    0.000;10.03915
 481.41;    9.267;   -0.620;    0.000; 9.88696
 481.57;    8.496;    7.400;    0.000; 1.09626
 481.73;    3.871;    2.580;    0.000; 1.29119
 481.89;   10.176;   -0.050;    0.000;10.22628
 482.06;    1.804;    0.030;    0.000; 1.77435
 482.22;    0.248;   -0.340;    0.000; 0.58841
 482.38;    9.470;   -3.860;    0.000;13.32978
 482.54;    8.502;    4.930;    0.000; 3.57235
 482.70;    9.154;    9.200;    0.000;-0.04579
 482.86;    8.884;   -0.500;    0.000; 9.38388
 483.02;    8.926;    4.840;    0.000; 4.08557
 483.18;    6.129;    1.370;    0.000; 4.75877
 483.34;   10.258;    0.610;    0.000; 9.64817
 483.51;   11.244;   -2.820;    0.000;14.06425
 483.67;    2.132;    4.610;    0.000;-2.47827
 483.83;    2.052;   -5.620;    0.000; 7.67227
 483.99;    5.434;    8.040;    0.000;-2.60562
 484.15;    4.270;    0.090;    0.000; 4.17974
 484.31;    3.745;   -2.530;    0.000; 6.27493
 484.47;   11.027;   -2.190;    0.000;13.21714
 484.63;    6.224;    3.210;    0.000; 3.01411
 484.79;    9.465;   -1.840;    0.000;11.30537
 484.95;    8.670;   -4.170;    0.000;12.84020
 485.12;    1.421;    7.650;    0.000;-6.22901
 485.28;    8.136;    0.400;    0.000; 7.73597
 485.44;    2.362;   -2.020;    0.000; 4.38201
 485.60;    4.763;    8.100;    0.000;-3.33660
 485.76;    0.225;   -5.790;    0.000; 6.01549
 485.92;    8.943;    2.880;    0.000; 6.06302
 486.08;    1.751;   -5.010;    0.000; 6.76074
 486.24;    0.893;    3.730;    0.000;-2.83666
 486.40;   -2.983;    1.710;    0.000;-4.69286
 486.56;   10.255;    0.600;    0.000; 9.65471
 486.73;    0.136;  -10.960;    0.000;11.09624
 486.89;   11.758;    0.840;    0.000;10.91781
 487.05;    6.144;    3.630;    0.000; 2.51360
 487.21;    5.212;    2.930;    0.000; 2.28171
 487.37;    2.161;   -0.640;    0.000; 2.80149
 487.53;    4.727;    3.930;    0.000; 0.79658
 487.69;   10.580;    4.490;    0.000; 6.08980
 487.85;    4.096;   -2.200;    0.000; 6.29630
 488.01;    6.079;    0.240;    0.000; 5.83909
 488.17;    8.654;   -4.050;    0.000;12.70427
 488.33;    7.873;   -0.760;    0.000; 8.63334
 488.49;    8.203;    8.030;    0.000; 0.17332
 488.66;    6.478;    5.130;    0.000; 1.34847
 488.82;    6.116;   -2.010;    0.000; 8.12593
 488.98;   10.341;    2.640;    0.000; 7.70064
 489.14;    9.567;    1.580;    0.000; 7.98714
 489.30;    1.758;   -4.220;    0.000; 5.97839
 489.46;    9.956;   -0.790;    0.000;10.74567
 489.62;    3.126;   -9.140;    0.000;12.26580
 489.78;    9.884;   -0.390;    0.000;10.27437
 489.94;    5.626;   -0.120;    0.000; 5.74557
 490.10;   11.649;    6.680;    0.000; 4.96946
 490.26;    9.433;   -3.220;    0.000;12.65294
 490.42;    0.607;   -6.360;    0.000; 6.96688
 490.58;    8.757;    1.460;    0.000; 7.29712
 490.75;    7.877;   -4.500;    0.000;12.37714
 490.91;    2.001;   -2.530;    0.000; 4.53101
 491.07;   10.808;   -4.570;    0.000;15.37847
 491.23;    4.533;    0.570;    0.000; 3.96286
 491.39;   10.985;    2.010;    0.000; 8.97521
 491.55;   45.599;   -3.780;    0.000;49.37869
 491.71;  153.913;    3.570;    0.000;150.34312
 491.87;  101.426;    5.930;    0.000;95.49648
 492.03;   38.404;    5.920;    0.000;32.48396
 492.19;    8.585;    8.850;    0.000;-0.26541
 492.35;    4.080;   -3.080;    0.000; 7.15976
 492.51;    6.971;    1.420;    0.000; 5.55143
 492.67;    9.139;    2.700;    0.000; 6.43871
 492.83;    3.120;    4.960;    0.000;-1.83970
 493.00;    8.557;    1.140;    0.000; 7.41722
 493.16;   15.326;    1.510;    0.000;13.81620
 493.32;   -0.374;    7.980;    0.000;-8.35380
 493.48;   11.008;   -3.560;    0.000;14.56847
 493.64;   16.927;    4.850;    0.000;12.07726
 493.80;   13.924;    0.420;    0.000;13.50380
 493.96;    5.181;    6.010;    0.000;-0.82899
 494.12;    0.487;   -2.130;    0.000; 2.61688
 494.28;    9.007;    0.110;    0.000; 8.89724
 494.44;    7.133;    2.560;    0.000; 4.57334
 494.60;    5.665;   -6.600;    0.000;12.26529
 494.76;   10.380;    6.960;    0.000; 3.42000
 494.92;   14.678;    6.410;    0.000; 8.26754
 495.08;    9.927;   -2.920;    0.000;12.84682
 495.24;    5.395;   -3.850;    0.000; 9.24521
 495.40;    4.260;   -2.410;    0.000; 6.66980
 495.56;    7.936;    3.910;    0.000; 4.02599
 495.73;   -0.417;    3.010;    0.000;-3.42708
 495.89;    8.534;    4.780;    0.000; 3.75442
 496.05;    5.109;    1.910;    0.000; 3.19905
 496.21;   14.003;    0.740;    0.000;13.26312
 496.37;   -0.003;    2.910;    0.000;-2.91346
 496.53;   13.762;    4.090;    0.000; 9.67163
 496.69;   10.888;    0.660;    0.000;10.22843
 496.85;   -0.517;    0.250;    0.000;-0.76694
 497.01;    5.427;    3.090;    0.000; 2.33712
 497.17;   10.038;   -1.830;    0.000;11.86819
 497.33;   -0.231;    5.090;    0.000;-5.32091
 497.49;    2.784;   -0.820;    0.000; 3.60398
 497.65;    6.372;    8.490;    0.000;-2.11761
 497.81;   10.395;   -6.060;    0.000;16.45469
 497.97;    3.656;   -5.080;    0.000; 8.73646
 498.13;   12.073;   -5.060;    0.000;17.13296
 498.29;    4.899;    2.900;    0.000; 1.99861
 498.45;    4.413;    6.560;    0.000;-2.14692
 498.61;    0.685;    3.310;    0.000;-2.62547
 498.77;    8.519;    3.900;    0.000; 4.61893
 498.93;    0.136;   -5.170;    0.000; 5.30628
 499.09;   -0.244;    3.820;    0.000;-4.06413
 499.25;   -0.587;    5.510;    0.000;-6.09672
 499.41;    3.753;   -6.360;    0.000;10.11312
 499.58;   -0.191;    4.970;    0.000;-5.16147
 499.74;    4.370;    5.920;    0.000;-1.55048
 499.90;    3.860;    3.420;    0.000; 0.44000
 500.06;    4.812;   -6.130;    0.000;10.94167
 500.22;    6.263;    1.990;    0.000; 4.27328
 500.38;    8.392;    4.590;    0.000; 3.80209
 500.54;    2.745;   -4.070;    0.000; 6.81463
 500.70;    6.179;    2.900;    0.000; 3.27911
 500.86;   -0.811;   -5.290;    0.000; 4.47899
 501.02;    0.025;    3.740;    0.000;-3.71491
 501.18;    3.597;    2.730;    0.000; 0.86712
 501.34;    9.577;    6.260;    0.000; 3.31748
 501.50;    5.640;    5.010;    0.000; 0.63022
 501.66;    7.489;   -0.120;    0.000; 7.60883
 501.82;    4.671;   -4.750;    0.000; 9.42074
 501.98;    3.771;    0.670;    0.000; 3.10052
 502.14;    0.747;    8.180;    0.000;-7.43252
 502.30;    7.019;    0.310;    0.000; 6.70881
 502.46;   -4.327;   -0.880;    0.000;-3.44672
 502.62;    7.629;    5.340;    0.000; 2.28855
 502.78;    6.349;    3.280;    0.000; 3.06913
 502.94;   -2.638;    1.760;    0.000;-4.39827
 503.10;    1.717;   -5.260;    0.000; 6.97674
 503.26;   12.004;    8.420;    0.000; 3.58374
 503.42;    4.033;    4.190;    0.000;-0.15670
 503.58;    8.730;    0.230;    0.000; 8.50012
 503.74;   -1.776;    1.700;    0.000;-3.47551
 503.90;   -3.094;   -6.940;    0.000; 3.84583
 504.06;    3.863;    1.410;    0.000; 2.45300
 504.22;    0.179;    5.840;    0.000;-5.66052
 504.38;   10.563;   -1.050;    0.000;11.61332
 504.54;    9.661;   -1.800;    0.000;11.46141
 504.70;    1.000;    2.300;    0.000;-1.29968
 504.86;    6.035;   -4.940;    0.000;10.97539
 505.02;   -6.790;   -0.280;    0.000;-6.50964
 505.18;    0.836;    0.160;    0.000; 0.67583
 505.34;    3.266;    0.700;    0.000; 2.56640
 505.50;    5.541;   -1.950;    0.000; 7.49115
 505.66;    4.527;   -4.910;    0.000; 9.43684
 505.82;   12.088;    0.170;    0.000;11.91801
 505.98;    3.798;    2.420;    0.000; 1.37815
 506.14;    3.261;    0.310;    0.000; 2.95141
 506.30;    5.986;    2.740;    0.000; 3.24612
 506.46;    1.564;   -1.790;    0.000; 3.35364
 506.62;    0.578;   -2.030;    0.000; 2.60787
 506.78;    5.531;    0.770;    0.000; 4.76113
 506.94;    2.474;   -4.360;    0.000; 6.83400
 507.10;    1.816;    4.580;    0.000;-2.76370
 507.26;   -2.109;    6.070;    0.000;-8.17905
 507.42;    6.690;   -1.320;    0.000; 8.00986
 507.58;    1.382;   -3.570;    0.000; 4.95227
 507.74;    7.725;    4.630;    0.000; 3.09495
 507.90;   -1.067;    4.800;    0.000;-5.86744
 508.06;    4.518;   -0.220;    0.000; 4.73807
 508.22;    5.922;    5.270;    0.000; 0.65199
 508.38;    5.254;    2.380;    0.000; 2.87370
 508.54;    5.201;   -1.830;    0.000; 7.03121
 508.70;    3.411;    2.890;    0.000; 0.52078
 508.86;    4.230;   -2.210;    0.000; 6.43974
 509.02;    3.300;   -0.540;    0.000; 3.83962
 509.18;    0.746;   -9.800;    0.000;10.54551
 509.34;    7.319;    1.800;    0.000; 5.51857
 509.50;    4.637;    0.440;    0.000; 4.19746
 509.66;    5.378;    5.150;    0.000; 0.22829
 509.82;   -0.562;   -4.340;    0.000; 3.77809
 509.98;    2.960;    2.200;    0.000; 0.76016
 510.14;    4.223;    1.310;    0.000; 2.91256
 510.30;    1.845;    0.500;    0.000; 1.34459
 510.46;    2.157;    2.740;    0.000;-0.58278
 510.62;    7.494;   -1.980;    0.000; 9.47382
 510.78;    0.836;    0.150;    0.000; 0.68589
 510.94;    5.992;   -0.590;    0.000; 6.58173
 511.10;    0.796;    2.800;    0.000;-2.00443
 511.26;   11.116;   -0.130;    0.000;11.24640
 511.42;    5.687;   -1.010;    0.000; 6.69658
 511.58;    8.203;    3.420;    0.000; 4.78277
 511.74;    5.912;    4.870;    0.000; 1.04223
 511.90;    6.000;    8.270;    0.000;-2.27048
 512.06;    7.221;    0.680;    0.000; 6.54066
 512.22;   10.149;   -1.510;    0.000;11.65865
 512.38;    8.400;   -1.160;    0.000; 9.55988
 512.54;    3.884;   -3.700;    0.000; 7.58394
 512.70;    3.417;    1.680;    0.000; 1.73656
 512.86;    7.072;    5.720;    0.000; 1.35187
 513.02;    0.181;    3.350;    0.000;-3.16895
 513.18;    0.863;    2.640;    0.000;-1.77726
 513.34;    6.212;   -1.290;    0.000; 7.50233
 513.50;   13.583;    0.110;    0.000;13.47296
 513.66;    0.668;   -3.410;    0.000; 4.07758
 513.82;    1.223;    3.550;    0.000;-2.32702
 513.98;    9.407;    1.510;    0.000; 7.89654
 514.14;   11.917;   -1.800;    0.000;13.71660
 514.30;    6.106;   -3.600;    0.000; 9.70581
 514.46;    5.378;   -6.420;    0.000;11.79823
 514.61;    1.553;    1.850;    0.000;-0.29728
 514.77;   -1.644;   -3.070;    0.000; 1.42561
 514.93;    5.032;    4.530;    0.000; 0.50193
 515.09;    2.148;    1.410;    0.000; 0.73758
 515.25;   -3.993;   -5.910;    0.000; 1.91684
 515.41;    6.882;   -2.950;    0.000; 9.83189
 515.57;    2.713;    6.930;    0.000;-4.21736
 515.73;    7.125;    0.970;    0.000; 6.15501
 515.89;    8.065;   -1.600;    0.000; 9.66461
 516.05;    7.224;    6.310;    0.000; 0.91370
 516.21;    0.533;    8.220;    0.000;-7.68700
 516.37;    2.942;    9.410;    0.000;-6.46793
 516.53;    3.898;   -4.400;    0.000; 8.29752
 516.69;    5.315;    2.110;    0.000; 3.20501
 516.85;    7.838;   -5.580;    0.000;13.41835
 517.01;    0.258;    0.790;    0.000;-0.53213
 517.17;    1.761;    0.340;    0.000; 1.42133
 517.33;    4.904;    5.390;    0.000;-0.48590
 517.49;    5.437;   -5.270;    0.000;10.70748
 517.65;    0.545;   -6.220;    0.000; 6.76513
 517.81;    3.299;   -2.280;    0.000; 5.57887
 517.97;    9.396;   -4.380;    0.000;13.77590
 518.13;    2.340;   -2.980;    0.000; 5.31976
 518.28;    8.293;   -4.860;    0.000;13.15284
 518.44;    6.047;   -2.200;    0.000; 8.24728
 518.60;    5.105;   -2.570;    0.000; 7.67499
 518.76;   -2.966;   -4.530;    0.000; 1.56423
 518.92;    6.285;   -3.930;    0.000;10.21491
 519.08;    0.698;    5.850;    0.000;-5.15153
 519.24;   11.115;    6.210;    0.000; 4.90533
 519.40;    0.814;   -0.300;    0.000; 1.11360
 519.56;    0.488;    0.870;    0.000;-0.38177
 519.72;    6.181;    1.980;    0.000; 4.20114
 519.88;    2.631;   -0.620;    0.000; 3.25119
 520.04;    2.041;    4.080;    0.000;-2.03876
 520.20;    8.151;   -2.300;    0.000;10.45129
 520.36;   -5.479;   -0.680;    0.000;-4.79866
 520.52;    3.321;    0.700;    0.000; 2.62140
 520.68;   -3.189;   -2.880;    0.000;-0.30855
 520.84;   10.991;    5.080;    0.000; 5.91150
 520.99;    1.402;   -6.530;    0.000; 7.93155
 521.15;    4.462;   -0.710;    0.000; 5.17160
 521.31;    2.552;    6.620;    0.000;-4.06835
 521.47;    6.062;   -3.260;    0.000; 9.32171
 521.63;    3.102;   -0.190;    0.000; 3.29176
 521.79;   13.012;    3.690;    0.000; 9.32181
 521.95;    2.252;   -3.550;    0.000; 5.80186
 522.11;    8.132;    1.460;    0.000; 6.67191
 522.27;    5.882;   -0.220;    0.000; 6.10197
 522.43;    6.332;   -3.620;    0.000; 9.95202
 522.59;   14.372;   -3.770;    0.000;18.14207
 522.75;    1.222;   -3.850;    0.000; 5.07212
 522.91;    3.592;   -0.740;    0.000; 4.33217
 523.07;    8.982;    8.530;    0.000; 0.45222
 523.23;    6.652;    4.400;    0.000; 2.25228
 523.38;    1.562;   -0.390;    0.000; 1.95233
 523.54;    5.982;   -5.700;    0.000;11.68238
 523.70;    1.162;    2.150;    0.000;-0.98757
 523.86;    5.502;    2.930;    0.000; 2.57248
 524.02;    6.313;    1.370;    0.000; 4.94253
 524.18;    5.693;   -5.870;    0.000;11.56259
 524.34;    2.663;   -4.690;    0.000; 7.35264
 524.50;   -0.747;   -4.000;    0.000; 3.25269
 524.66;    1.443;   -1.640;    0.000; 3.08274
 524.82;    6.113;   -1.050;    0.000; 7.16279
 524.98;    9.613;    4.380;    0.000; 5.23284
 525.14;    3.873;   -1.630;    0.000; 5.50290
 525.29;    3.993;   -5.420;    0.000; 9.41295
 525.45;   -0.017;   -6.120;    0.000; 6.10300
 525.61;    4.043;    1.520;    0.000; 2.52305
 525.77;    6.643;   -4.920;    0.000;11.56310
 525.93;   16.073;    4.120;    0.000;11.95315
 526.09;    5.853;    1.960;    0.000; 3.89321
 526.25;    9.693;   -6.140;    0.000;15.83326
 526.41;    5.133;   -0.010;    0.000; 5.14331
 526.57;    2.063;    2.690;    0.000;-0.62664
 526.73;    5.963;    1.340;    0.000; 4.62341
 526.89;    5.723;    5.440;    0.000; 0.28346
 527.04;    6.274;    6.340;    0.000;-0.06648
 527.20;    7.164;  -10.500;    0.000;17.66357
 527.36;    3.174;    4.130;    0.000;-0.95638
 527.52;    8.264;    1.380;    0.000; 6.88367
 527.68;    6.704;   -0.990;    0.000; 7.69372
 527.84;    8.574;   -3.290;    0.000;11.86378
 528.00;   -6.146;    3.240;    0.000;-9.38617
 528.16;    9.024;    0.680;    0.000; 8.34388
 528.32;   14.744;   -3.570;    0.000;18.31393
 528.48;    2.614;    0.790;    0.000; 1.82398
 528.64;    4.224;   -4.860;    0.000; 9.08403
 528.79;    5.434;   -1.160;    0.000; 6.59409
 528.95;    5.804;   -3.170;    0.000; 8.97414
 529.11;   15.284;    6.820;    0.000; 8.46419
 529.27;    1.104;   -0.430;    0.000; 1.53424
 529.43;   16.304;    5.550;    0.000;10.75429
 529.59;    6.804;    3.730;    0.000; 3.07434
 529.75;    5.944;   -1.970;    0.000; 7.91440
 529.91;    6.034;    2.780;    0.000; 3.25445
 530.07;    3.804;   -0.700;    0.000; 4.50450
 530.22;    2.585;    1.250;    0.000; 1.33455
 530.38;   10.425;   -2.740;    0.000;13.16460
 530.54;   -0.895;    1.420;    0.000;-2.31535
 530.70;    8.835;    6.290;    0.000; 2.54471
 530.86;   -7.395;   -2.200;    0.000;-5.19524
 531.02;    9.805;   -0.410;    0.000;10.21481
 531.18;    0.915;   -0.420;    0.000; 1.33486
 531.34;   13.015;    3.090;    0.000; 9.92491
 531.50;    3.985;    0.750;    0.000; 3.23497
 531.65;   12.495;    0.180;    0.000;12.31502
 531.81;   10.565;   -3.650;    0.000;14.21507
 531.97;   19.395;    0.940;    0.000;18.45512
 532.13;    3.015;   -2.610;    0.000; 5.62517
 532.29;    5.185;    2.440;    0.000; 2.74522
 532.45;    6.225;   -1.050;    0.000; 7.27528
 532.61;   14.295;   -1.110;    0.000;15.40533
 532.77;    6.125;    0.880;    0.000; 5.24538
 532.93;    9.555;    1.270;    0.000; 8.28543
 533.08;    2.295;   -0.420;    0.000; 2.71548
 533.24;   17.456;    2.090;    0.000;15.36553
 533.40;    3.866;   -1.580;    0.000; 5.44559
 533.56;    5.056;    1.420;    0.000; 3.63564
 533.72;    8.756;  -10.970;    0.000;19.72569
 533.88;    3.986;    0.590;    0.000; 3.39574
 534.04;   -8.324;  -13.830;    0.000; 5.50579
 534.20;   32.326;   30.130;    0.000; 2.19584
 534.35;   63.876;   52.390;    0.000;11.48590
 534.51;    8.056;    6.120;    0.000; 1.93595
 534.67;    4.376;    1.300;    0.000; 3.07600
 534.83;   11.386;   -1.540;    0.000;12.92605
 534.99;    2.856;   -2.490;    0.000; 5.34610
 535.15;   13.516;    2.070;    0.000;11.44615
 535.31;   10.046;    5.430;    0.000; 4.61621
 535.46;   15.186;   -3.600;    0.000;18.78626
 535.62;   11.036;    0.780;    0.000;10.25631
 535.78;   13.956;    0.360;    0.000;13.59636
 535.94;    3.666;   -0.440;    0.000; 4.10641
 536.10;    7.276;    8.870;    0.000;-1.59353
 536.26;   -0.123;    3.550;    0.000;-3.67348
 536.42;    9.967;    0.810;    0.000; 9.15657
 536.58;    7.497;   -6.280;    0.000;13.77662
 536.73;   18.967;    2.660;    0.000;16.30667
 536.89;   15.007;    5.700;    0.000; 9.30672
 537.05;    6.177;   -1.230;    0.000; 7.40678
 537.21;    5.817;   -2.690;    0.000; 8.50683
 537.37;    8.217;    9.160;    0.000;-0.94312
 537.53;    9.217;    0.020;    0.000; 9.19693
 537.69;    8.367;   -2.590;    0.000;10.95698
 537.84;    7.727;    1.470;    0.000; 6.25703
 538.00;    6.897;   -1.540;    0.000; 8.43709
 538.16;   10.327;   -2.080;    0.000;12.40714
 538.32;    7.367;   -4.380;    0.000;11.74719
 538.48;   -1.483;   -3.840;    0.000; 2.35724
 538.64;   12.057;   -0.620;    0.000;12.67729
 538.80;    5.797;   -3.540;    0.000; 9.33734
 538.95;   15.827;    3.780;    0.000;12.04740
 539.11;    9.477;   -3.540;    0.000;13.01745
 539.27;    9.947;   -2.260;    0.000;12.20750
 539.43;    5.678;   -0.330;    0.000; 6.00755
 539.59;   16.438;    4.380;    0.000;12.05760
 539.75;    3.178;   -4.700;    0.000; 7.87765
 539.90;    7.218;   -0.620;    0.000; 7.83771
 540.06;   11.338;   -3.580;    0.000;14.91776
 540.22;   11.188;   -5.700;    0.000;16.88781
 540.38;    7.758;    4.840;    0.000; 2.91786
 540.54;   13.158;   -0.780;    0.000;13.93791
 540.70;   15.188;    3.340;    0.000;11.84797
 540.86;   18.888;   -5.890;    0.000;24.77802
 541.01;   12.558;   -3.280;    0.000;15.83807
 541.17;   17.968;   -0.110;    0.000;18.07812
 541.33;   12.948;   -1.780;    0.000;14.72817
 541.49;   17.478;   -4.430;    0.000;21.90822
 541.65;   21.098;    2.160;    0.000;18.93828
 541.81;   13.618;    0.700;    0.000;12.91833
 541.96;   15.538;    3.430;    0.000;12.10838
 542.12;   17.108;   -2.990;    0.000;20.09843
 542.28;    9.748;   -4.130;    0.000;13.87848
 542.44;   19.169;   -1.950;    0.000;21.11853
 542.60;   16.639;    3.870;    0.000;12.76859
 542.76;   16.189;    2.790;    0.000;13.39864
 542.91;   21.149;   -2.380;    0.000;23.52869
 543.07;   23.259;   -0.230;    0.000;23.48874
 543.23;   21.129;    4.190;    0.000;16.93879
 543.39;   27.059;   -3.680;    0.000;30.73884
 543.55;   30.359;    3.950;    0.000;26.40890
 543.71;   36.609;   -4.630;    0.000;41.23895
 543.86;   32.599;   -7.930;    0.000;40.52900
 544.02;   36.399;   -2.690;    0.000;39.08905
 544.18;   40.559;    0.570;    0.000;39.98910
 544.34;   58.369;   -0.880;    0.000;59.24916
 544.50;   65.999;    0.730;    0.000;65.26921
 544.65;   81.599;   -3.660;    0.000;85.25926
 544.81;  103.459;    2.340;    0.000;101.11931
 544.97;  136.779;   -1.200;    0.000;137.97936
 545.13;  173.789;   -3.720;    0.000;177.50941
 545.29;  258.269;    0.970;    0.000;257.29947
 545.45;  386.740;    2.590;    0.000;384.14950
 545.60;  675.270;   -5.740;    0.000;681.00959
 545.76; 1366.030;    3.220;    0.000;1362.80966
 545.92; 4524.510;   -8.830;    0.000;4533.33977
 546.08;38079.930;    5.070;    0.000;38074.85969
 546.24;51804.160;   -1.330;    0.000;51805.49016
 546.39;26331.539;    2.020;    0.000;26329.51906
 546.55; 9314.320;   -1.110;    0.000;9315.43031
 546.71; 1862.560;    5.110;    0.000;1857.44994
 546.87; 1231.130;   -4.670;    0.000;1235.80000
 547.03;  414.140;    3.390;    0.000;410.75005
 547.19;  586.920;   -2.330;    0.000;589.25010
 547.34;  203.180;    0.100;    0.000;203.08013
 547.50;  397.360;    1.370;    0.000;395.99020
 547.66;  133.750;   -1.650;    0.000;135.40024
 547.82;  293.830;    0.320;    0.000;293.51029
 547.98;   98.340;    2.330;    0.000;96.01035
 548.13;  236.400;    1.020;    0.000;235.38039
 548.29;   86.530;    5.750;    0.000;80.78045
 548.45;  198.941;   -1.800;    0.000;200.74051
 548.61;   62.891;   -5.050;    0.000;67.94055
 548.77;  167.531;   -0.580;    0.000;168.11061
 548.92;   60.081;   -3.980;    0.000;64.06065
 549.08;  150.561;    1.110;    0.000;149.45070
 549.24;   54.081;    2.020;    0.000;52.06076
 549.40;  135.591;   -2.070;    0.000;137.66080
 549.56;   46.861;   -5.420;    0.000;52.28086
 549.71;  123.671;    3.800;    0.000;119.87091
 549.87;   54.491;    2.580;    0.000;51.91097
 550.03;  117.931;   -1.710;    0.000;119.64102
 550.19;   54.801;   -2.750;    0.000;57.55107
 550.35;  104.591;   -3.040;    0.000;107.63112
 550.50;   29.841;    0.730;    0.000;29.11117
 550.66;   98.381;   -3.150;    0.000;101.53123
 550.82;   36.431;    0.300;    0.000;36.13127
 550.98;   91.721;    2.990;    0.000;88.73133
 551.14;   36.231;   -8.530;    0.000;44.76138
 551.29;   83.951;    5.910;    0.000;78.04143
 551.45;   32.401;    3.070;    0.000;29.33148
 551.61;   85.672;   -0.320;    0.000;85.99153
 551.77;   31.862;   -5.700;    0.000;37.56159
 551.92;   70.722;   -6.880;    0.000;77.60163
 552.08;   26.812;    3.280;    0.000;23.53169
 552.24;   68.422;   -2.020;    0.000;70.44174
 552.40;   26.002;   -5.390;    0.000;31.39179
 552.56;   64.632;   -3.470;    0.000;68.10184
 552.71;   19.152;    1.410;    0.000;17.74190
 552.87;   64.592;    2.460;    0.000;62.13195
 553.03;   19.942;   -0.740;    0.000;20.68200
 553.19;   59.632;   -1.830;    0.000;61.46205
 553.35;   17.702;    0.140;    0.000;17.56210
 553.50;   58.072;    2.480;    0.000;55.59215
 553.66;   18.092;   -1.960;    0.000;20.05221
 553.82;   46.562;   -4.110;    0.000;50.67226
 553.98;   21.992;   -3.790;    0.000;25.78231
 554.13;   52.222;   -1.970;    0.000;54.19236
 554.29;   14.862;    4.510;    0.000;10.35241
 554.45;   59.782;   -5.230;    0.000;65.01247
 554.61;   21.413;    0.010;    0.000;21.40252
 554.77;   49.463;  -10.360;    0.000;59.82257
 554.92;   15.063;   -7.050;    0.000;22.11262
 555.08;   43.823;    0.080;    0.000;43.74267
 555.24;    9.073;    0.400;    0.000; 8.67272
 555.40;   43.683;   -1.120;    0.000;44.80277
 555.55;   13.163;    1.310;    0.000;11.85283
 555.71;   45.023;    0.510;    0.000;44.51288
 555.87;   18.783;   -4.680;    0.000;23.46293
 556.03;   42.723;    0.440;    0.000;42.28298
 556.18;   19.613;    0.960;    0.000;18.65303
 556.34;   46.053;   -3.920;    0.000;49.97309
 556.50;   13.413;   -4.700;    0.000;18.11314
 556.66;   38.623;    0.870;    0.000;37.75319
 556.81;   12.613;   -1.370;    0.000;13.98324
 556.97;   45.753;    1.150;    0.000;44.60329
 557.13;   15.083;    3.640;    0.000;11.44334
 557.29;   31.103;   -5.960;    0.000;37.06340
 557.45;   10.843;   -0.280;    0.000;11.12345
 557.60;   30.653;   -0.580;    0.000;31.23350
 557.76;    8.004;   -1.370;    0.000; 9.37355
 557.92;   38.914;    1.810;    0.000;37.10360
 558.08;   15.474;    1.490;    0.000;13.98365
 558.23;   34.424;   -1.180;    0.000;35.60371
 558.39;    6.684;    7.850;    0.000;-1.16624
 558.55;   35.774;    0.880;    0.000;34.89381
 558.71;    9.854;    2.610;    0.000; 7.24386
 558.86;   36.584;   -0.580;    0.000;37.16391
 559.02;   13.564;    7.180;    0.000; 6.38397
 559.18;   32.854;   -1.620;    0.000;34.47402
 559.34;   18.564;   -2.470;    0.000;21.03407
 559.49;   29.324;   -7.500;    0.000;36.82412
 559.65;   15.854;   -1.120;    0.000;16.97417
 559.81;   27.314;    7.750;    0.000;19.56422
 559.97;   11.494;    2.910;    0.000; 8.58428
 560.12;   27.294;   -0.300;    0.000;27.59433
 560.28;    7.644;    0.440;    0.000; 7.20438
 560.44;   29.824;   -8.160;    0.000;37.98443
 560.60;   13.604;   -2.760;    0.000;16.36448
 560.75;   31.275;    2.640;    0.000;28.63453
 560.91;    9.635;   -2.680;    0.000;12.31459
 561.07;   26.115;   -1.630;    0.000;27.74464
 561.23;   12.665;   -3.580;    0.000;16.24469
 561.38;   31.055;   -6.760;    0.000;37.81474
 561.54;   10.865;   -3.100;    0.000;13.96479
 561.70;   34.585;    2.560;    0.000;32.02484
 561.85;    6.755;   -6.910;    0.000;13.66490
 562.01;   22.405;    4.340;    0.000;18.06495
 562.17;    9.095;    1.200;    0.000; 7.89500
 562.33;   28.085;    1.440;    0.000;26.64505
 562.48;    7.435;    3.190;    0.000; 4.24510
 562.64;   27.885;    5.580;    0.000;22.30515
 562.80;    4.905;   -2.100;    0.000; 7.00521
 562.96;   28.125;    0.450;    0.000;27.67526
 563.11;   11.765;   -4.910;    0.000;16.67531
 563.27;   25.615;    2.370;    0.000;23.24536
 563.43;    7.435;   -0.300;    0.000; 7.73541
 563.59;   24.585;    2.930;    0.000;21.65546
 563.74;    4.396;    0.680;    0.000; 3.71552
 563.90;   29.116;   -3.600;    0.000;32.71557
 564.06;    0.216;   -5.090;    0.000; 5.30562
 564.21;   24.016;    4.570;    0.000;19.44567
 564.37;    5.296;    5.850;    0.000;-0.55428
 564.53;   25.616;   -1.780;    0.000;27.39578
 564.69;    5.056;   -5.170;    0.000;10.22583
 564.84;   24.546;   -2.870;    0.000;27.41588
 565.00;   15.316;    5.620;    0.000; 9.69593
 565.16;   17.586;   -0.230;    0.000;17.81598
 565.32;    2.426;    0.820;    0.000; 1.60603
 565.47;   26.226;   -0.890;    0.000;27.11609
 565.63;   12.876;   -0.690;    0.000;13.56614
 565.79;   28.656;    1.740;    0.000;26.91619
 565.94;   14.956;   -5.240;    0.000;20.19624
 566.10;   24.856;   -4.450;    0.000;29.30629
 566.26;    8.226;   -2.210;    0.000;10.43634
 566.42;   15.796;    5.970;    0.000; 9.82640
 566.57;    5.646;    5.480;    0.000; 0.16645
 566.73;   27.376;    0.400;    0.000;26.97650
 566.89;    8.497;   -3.380;    0.000;11.87655
 567.04;   16.987;   -4.350;    0.000;21.33660
 567.20;    7.667;    2.040;    0.000; 5.62665
 567.36;   19.947;   -3.890;    0.000;23.83671
 567.52;    6.437;   -2.970;    0.000; 9.40676
 567.67;   19.247;    2.920;    0.000;16.32681
 567.83;    8.187;    0.360;    0.000; 7.82686
 567.99;   21.527;   -0.460;    0.000;21.98691
 568.14;   12.107;    1.170;    0.000;10.93697
 568.30;   22.097;    0.290;    0.000;21.80702
 568.46;   15.327;   -2.310;    0.000;17.63707
 568.61;   24.057;   -1.430;    0.000;25.48712
 568.77;    8.887;    0.640;    0.000; 8.24717
 568.93;   16.597;   -0.340;    0.000;16.93722
 569.09;    7.497;    1.190;    0.000; 6.30728
 569.24;   17.737;    0.370;    0.000;17.36733
 569.40;    9.357;   -3.340;    0.000;12.69738
 569.56;   18.927;   -3.910;    0.000;22.83743
 569.71;    1.017;    0.200;    0.000; 0.81748
 569.87;   24.488;    4.960;    0.000;19.52753
 570.03;    6.698;   -1.260;    0.000; 7.95759
 570.18;   18.978;    0.780;    0.000;18.19764
 570.34;    9.308;   -9.280;    0.000;18.58769
 570.50;   17.408;    6.980;    0.000;10.42774
 570.66;   16.118;   -0.230;    0.000;16.34779
 570.81;   16.378;   -0.840;    0.000;17.21784
 570.97;    8.578;   -2.690;    0.000;11.26790
 571.13;   15.828;    2.230;    0.000;13.59795
 571.28;    8.688;    1.420;    0.000; 7.26800
 571.44;   22.018;    0.160;    0.000;21.85805
 571.60;   -0.072;   -2.300;    0.000; 2.22810
 571.75;   21.298;    2.360;    0.000;18.93815
 571.91;    7.008;   -5.300;    0.000;12.30821
 572.07;   16.858;   -0.370;    0.000;17.22826
 572.22;   -0.662;   -3.180;    0.000; 2.51831
 572.38;   16.978;   -1.640;    0.000;18.61836
 572.54;    6.188;   -1.270;    0.000; 7.45841
 572.70;   17.218;   -2.000;    0.000;19.21847
 572.85;    4.929;   -3.170;    0.000; 8.09852
 573.01;   13.259;   -3.230;    0.000;16.48857
 573.17;   15.329;   -0.860;    0.000;16.18862
 573.32;   19.219;    2.870;    0.000;16.34867
 573.48;    2.299;    5.500;    0.000;-3.20128
 573.64;   19.829;   -1.630;    0.000;21.45878
 573.79;    6.829;   -7.670;    0.000;14.49883
 573.95;   19.459;   -6.510;    0.000;25.96888
 574.11;    6.189;    3.240;    0.000; 2.94893
 574.26;   18.819;   -1.870;    0.000;20.68898
 574.42;   10.219;   -0.740;    0.000;10.95903
 574.58;   16.559;    9.270;    0.000; 7.28909
 574.73;    8.839;   -0.670;    0.000; 9.50914
 574.89;   20.489;    0.760;    0.000;19.72919
 575.05;    8.409;    0.320;    0.000; 8.08924
 575.20;   25.739;   -7.350;    0.000;33.08929
 575.36;   20.219;   -1.150;    0.000;21.36935
 575.52;   24.379;   -0.220;    0.000;24.59940
 575.67;   15.009;   -3.790;    0.000;18.79945
 575.83;   32.020;   -0.570;    0.000;32.58950
 575.99;   22.600;   10.290;    0.000;12.30955
 576.14;   45.790;    4.510;    0.000;41.27960
 576.30;   45.240;    3.120;    0.000;42.11965
 576.46;   80.580;    1.250;    0.000;79.32970
 576.61;  142.040;   -1.770;    0.000;143.80976
 576.77;  379.260;   -0.430;    0.000;379.68980
 576.93; 3030.630;    3.980;    0.000;3026.64988
 577.08; 7504.610;    6.060;    0.000;7498.54986
 577.24; 3824.200;   -0.750;    0.000;3824.94995
 577.40; 1247.070;   -2.460;    0.000;1249.53007
 577.55;  367.350;    3.180;    0.000;364.17007
 577.71;  165.440;    0.350;    0.000;165.09012
 577.87;   78.930;   -2.000;    0.000;80.93018
 578.02;   93.820;    2.260;    0.000;91.56022
 578.18;   58.450;   -6.350;    0.000;64.80028
 578.34;   88.340;    0.230;    0.000;88.11032
 578.49;   77.140;    2.160;    0.000;74.98038
 578.65;  136.910;    4.150;    0.000;132.76043
 578.81;  230.660;    3.280;    0.000;227.38048
 578.96; 1186.341;    0.670;    0.000;1185.67058
 579.12; 6284.480;    1.310;    0.000;6283.17047
 579.28; 5950.271;    3.010;    0.000;5947.26051
 579.43; 2044.571;    0.680;    0.000;2043.89068
 579.59;  640.811;   -2.110;    0.000;642.92073
 579.74;  203.391;    0.420;    0.000;202.97079
 579.90;  110.771;    1.010;    0.000;109.76084
 580.06;   67.241;   -1.310;    0.000;68.55090
 580.21;   59.471;   -1.500;    0.000;60.97095
 580.37;   48.801;    3.120;    0.000;45.68100
 580.53;   45.661;   -1.380;    0.000;47.04105
 580.68;   34.891;   -3.550;    0.000;38.44110
 580.84;   43.671;   -9.350;    0.000;53.02115
 581.00;   22.671;   -9.970;    0.000;32.64121
 581.15;   36.751;    1.930;    0.000;34.82126
 581.31;   13.311;    3.830;    0.000; 9.48131
 581.47;   27.621;   -1.330;    0.000;28.95136
 581.62;   14.921;   -3.950;    0.000;18.87141
 581.78;   34.601;   -1.240;    0.000;35.84146
 581.93;   17.972;    3.890;    0.000;14.08152
 582.09;   31.232;   -2.190;    0.000;33.42157
 582.25;   14.292;    4.860;    0.000; 9.43162
 582.40;   17.252;    1.420;    0.000;15.83167
 582.56;   18.442;   -0.750;    0.000;19.19172
 582.72;   27.042;    0.060;    0.000;26.98177
 582.87;    6.762;   -4.280;    0.000;11.04183
 583.03;   27.422;    1.630;    0.000;25.79188
 583.19;   16.012;    2.080;    0.000;13.93193
 583.34;   17.192;    2.620;    0.000;14.57198
 583.50;    5.062;   -4.650;    0.000; 9.71203
 583.65;   23.592;    7.630;    0.000;15.96209
 583.81;   17.442;   -2.680;    0.000;20.12214
 583.97;   16.372;   -5.180;    0.000;21.55219
 584.12;   15.952;   -5.560;    0.000;21.51224
 584.28;   13.302;   -1.500;    0.000;14.80229
 584.44;    7.582;   -5.700;    0.000;13.28234
 584.59;   22.472;   -0.450;    0.000;22.92240
 584.75;    9.292;   -2.370;    0.000;11.66245
 584.90;   19.282;    0.250;    0.000;19.03250
 585.06;    6.903;   -4.390;    0.000;11.29255
 585.22;   18.203;    6.160;    0.000;12.04260
 585.37;    9.823;   -3.110;    0.000;12.93265
 585.53;   17.523;    1.170;    0.000;16.35271
 585.68;   13.163;   -2.770;    0.000;15.93276
 585.84;   16.653;    0.700;    0.000;15.95281
 586.00;    9.663;   -4.290;    0.000;13.95286
 586.15;   17.603;   -1.790;    0.000;19.39291
 586.31;    8.843;   -4.190;    0.000;13.03297
 586.47;   13.533;   -0.050;    0.000;13.58302
 586.62;    6.863;   -5.990;    0.000;12.85307
 586.78;    4.563;    3.170;    0.000; 1.39312
 586.93;   15.653;    0.710;    0.000;14.94317
 587.09;   22.053;   -1.020;    0.000;23.07322
 587.25;    5.763;    0.750;    0.000; 5.01328
 587.40;   11.603;    5.920;    0.000; 5.68333
 587.56;    2.793;   -3.160;    0.000; 5.95338
 587.71;   14.553;    6.490;    0.000; 8.06343
 587.87;    6.263;   -6.630;    0.000;12.89348
 588.03;   15.694;   -3.880;    0.000;19.57353
 588.18;    0.684;    2.980;    0.000;-2.29641
 588.34;   10.094;    1.200;    0.000; 8.89364
 588.49;    7.244;    2.250;    0.000; 4.99369
 588.65;   18.264;    7.700;    0.000;10.56374
 588.81;   11.294;   -6.410;    0.000;17.70379
 588.96;   12.714;    0.790;    0.000;11.92384
 589.12;   11.534;    0.100;    0.000;11.43390
 589.27;   16.644;    2.520;    0.000;14.12395
 589.43;   -3.746;    2.650;    0.000;-6.39600
 589.59;   16.974;   -1.050;    0.000;18.02405
 589.74;    1.744;   -2.900;    0.000; 4.64410
 589.90;    9.344;    5.990;    0.000; 3.35416
 590.05;    2.834;   -7.450;    0.000;10.28421
 590.21;   17.954;    4.350;    0.000;13.60426
 590.37;    7.294;    3.910;    0.000; 3.38431
 590.52;   13.544;   -3.060;    0.000;16.60436
 590.68;    1.794;   -3.450;    0.000; 5.24441
 590.83;   14.904;   -0.740;    0.000;15.64446
 590.99;   10.155;    5.030;    0.000; 5.12452
 591.15;   10.845;    0.310;    0.000;10.53457
 591.30;   -0.445;   -1.400;    0.000; 0.95462
 591.46;   11.195;    2.830;    0.000; 8.36467
 591.61;    1.285;   -0.040;    0.000; 1.32472
 591.77;    7.945;    1.800;    0.000; 6.14478
 591.93;    4.205;    2.520;    0.000; 1.68483
 592.08;   11.475;   -1.850;    0.000;13.32488
 592.24;    2.955;    3.600;    0.000;-0.64507
 592.39;    9.405;    8.710;    0.000; 0.69498
 592.55;    4.745;   -9.850;    0.000;14.59503
 592.70;    2.705;   -1.820;    0.000; 4.52509
 592.86;    3.135;    3.730;    0.000;-0.59486
 593.02;   10.215;    6.240;    0.000; 3.97519
 593.17;    1.675;   -2.210;    0.000; 3.88524
 593.33;   16.325;    2.890;    0.000;13.43529
 593.48;    4.315;   -1.790;    0.000; 6.10534
 593.64;   11.025;   -1.040;    0.000;12.06540
 593.79;    8.585;   -1.830;    0.000;10.41545
 593.95;    7.785;   -0.760;    0.000; 8.54550
 594.11;    4.556;    2.130;    0.000; 2.42555
 594.26;    8.726;   -3.200;    0.000;11.92560
 594.42;    4.026;   -1.040;    0.000; 5.06565
 594.57;   11.186;   -2.730;    0.000;13.91571
 594.73;    4.146;   -3.350;    0.000; 7.49576
 594.88;   11.156;   -4.690;    0.000;15.84581
 595.04;    0.376;   -4.600;    0.000; 4.97586
 595.20;   11.466;    0.470;    0.000;10.99591
 595.35;    6.686;    7.780;    0.000;-1.09404
 595.51;   14.586;    8.520;    0.000; 6.06602
 595.66;    8.906;   -9.750;    0.000;18.65607
 595.82;    6.216;    6.780;    0.000;-0.56388
 595.97;   -4.754;    0.010;    0.000;-4.76383
 596.13;   17.286;    5.350;    0.000;11.93622
 596.29;    6.066;   -6.170;    0.000;12.23628
 596.44;    3.766;    2.980;    0.000; 0.78633
 596.60;    8.846;    5.540;    0.000; 3.30638
 596.75;   12.446;    1.970;    0.000;10.47643
 596.91;    4.156;    2.260;    0.000; 1.89648
 597.06;    4.667;   -3.100;    0.000; 7.76653
 597.22;   -0.463;    2.010;    0.000;-2.47341
 597.37;   10.987;   -5.220;    0.000;16.20664
 597.53;   -0.873;    3.600;    0.000;-4.47331
 597.69;   10.977;   -3.960;    0.000;14.93674
 597.84;    6.177;    2.310;    0.000; 3.86679
 598.00;    8.667;    0.510;    0.000; 8.15684
 598.15;    9.137;   -3.080;    0.000;12.21690
 598.31;   15.007;   -2.100;    0.000;17.10695
 598.46;    7.707;   -3.160;    0.000;10.86700
 598.62;   13.577;   -4.850;    0.000;18.42705
 598.77;   -0.173;   -0.040;    0.000;-0.13290
 598.93;   12.007;    3.850;    0.000; 8.15715
 599.09;    1.817;    2.510;    0.000;-0.69279
 599.24;    8.027;    1.930;    0.000; 6.09726
 599.40;    5.457;   -7.840;    0.000;13.29731
 599.55;    9.077;    3.950;    0.000; 5.12736
 599.71;    0.707;    1.540;    0.000;-0.83259
 599.86;   14.697;    1.740;    0.000;12.95746
 600.02;    5.078;   -4.200;    0.000; 9.27752
 600.17;    5.858;    5.790;    0.000; 0.06757
 600.33;    2.308;   -1.050;    0.000; 3.35762
 600.48;    1.078;    0.950;    0.000; 0.12767
 600.64;    3.688;    0.250;    0.000; 3.43772
 600.79;   13.408;    4.610;    0.000; 8.79778
 600.95;    1.698;   -4.610;    0.000; 6.30783
 601.11;    1.478;    5.180;    0.000;-3.70212
 601.26;    7.188;   -0.920;    0.000; 8.10793
 601.42;    2.538;    4.540;    0.000;-2.00202
 601.57;   11.898;    3.430;    0.000; 8.46803
 601.73;   12.448;    2.820;    0.000; 9.62809
 601.88;    3.898;   -8.680;    0.000;12.57814
 602.04;    2.718;   -1.860;    0.000; 4.57819
 602.19;    6.258;   -1.190;    0.000; 7.44824
 602.35;    8.358;   -0.540;    0.000; 8.89829
 602.50;    3.238;    2.930;    0.000; 0.30834
 602.66;   11.258;    1.720;    0.000; 9.53840
 602.81;   -0.152;   -5.980;    0.000; 5.82845
 602.97;   13.198;    7.450;    0.000; 5.74850
 603.12;    2.159;    0.460;    0.000; 1.69855
 603.28;    8.059;    0.370;    0.000; 7.68860
 603.44;   -0.021;    1.580;    0.000;-1.60135
 603.59;    7.809;   -4.300;    0.000;12.10871
 603.75;    2.569;   -3.360;    0.000; 5.92876
 603.90;    5.099;    1.560;    0.000; 3.53881
 604.06;   10.929;   -1.270;    0.000;12.19886
 604.21;   12.739;   -6.050;    0.000;18.78891
 604.37;    6.339;    0.410;    0.000; 5.92897
 604.52;    9.749;   -1.340;    0.000;11.08902
 604.68;    8.099;    6.300;    0.000; 1.79907
 604.83;   12.559;    7.000;    0.000; 5.55912
 604.99;    3.399;    4.800;    0.000;-1.40083
 605.14;   15.939;   -0.550;    0.000;16.48922
 605.30;    8.359;   -1.590;    0.000; 9.94928
 605.45;   13.579;   -0.640;    0.000;14.21933
 605.61;    6.829;    0.620;    0.000; 6.20938
 605.76;    6.119;   -0.490;    0.000; 6.60943
 605.92;    6.079;    1.460;    0.000; 4.61948
 606.07;   12.820;    1.100;    0.000;11.71953
 606.23;   -0.210;   -5.950;    0.000; 5.73959
 606.38;    7.840;   -3.470;    0.000;11.30964
 606.54;    1.400;    0.930;    0.000; 0.46969
 606.69;   11.290;    4.560;    0.000; 6.72974
 606.85;    0.920;   -4.000;    0.000; 4.91979
 607.00;    5.730;   -0.950;    0.000; 6.67984
 607.16;    5.670;    0.280;    0.000; 5.38990
 607.31;   10.480;   -1.810;    0.000;12.28995
 607.47;    7.260;    0.440;    0.000; 6.82000
 607.62;   11.850;    0.500;    0.000;11.35005
 607.78;    1.200;   -4.360;    0.000; 5.56010
 607.93;    6.720;   -1.220;    0.000; 7.94015
 608.09;    8.300;   -0.340;    0.000; 8.64021
 608.24;    6.480;    5.140;    0.000; 1.34026
 608.40;    1.330;   -0.790;    0.000; 2.12031
 608.55;    9.200;   -0.500;    0.000; 9.70036
 608.71;    5.300;   -6.480;    0.000;11.78041
 608.86;   -1.260;   -2.070;    0.000; 0.81047
 609.02;    3.031;   -2.300;    0.000; 5.33052
 609.17;   14.781;   -2.110;    0.000;16.89057
 609.33;    4.361;    1.390;    0.000; 2.97062
 609.48;    6.471;   -3.290;    0.000; 9.76067
 609.64;    5.411;   -1.370;    0.000; 6.78072
 609.79;    0.921;   -4.800;    0.000; 5.72078
 609.95;    0.941;    5.040;    0.000;-4.09917
 610.10;    5.341;   -1.360;    0.000; 6.70088
 610.26;    4.501;    4.540;    0.000;-0.03907
 610.41;    5.811;    1.930;    0.000; 3.88098
 610.57;    4.081;   -1.130;    0.000; 5.21103
 610.72;    6.581;    1.720;    0.000; 4.86109
 610.88;   -1.149;   -0.700;    0.000;-0.44886
 611.03;    9.581;    1.770;    0.000; 7.81119
 611.19;   -6.859;    6.940;    0.000;-13.79876
 611.34;   14.701;   -1.110;    0.000;15.81129
 611.50;   -5.489;   -0.410;    0.000;-5.07866
 611.65;   13.201;    1.310;    0.000;11.89140
 611.81;    3.191;    1.360;    0.000; 1.83145
 611.96;    8.582;    1.290;    0.000; 7.29150
 612.12;    8.382;    2.470;    0.000; 5.91155
 612.27;    4.212;    5.990;    0.000;-1.77840
 612.43;    9.092;   -7.270;    0.000;16.36165
 612.58;    8.622;   -4.320;    0.000;12.94171
 612.73;    7.122;   -3.550;    0.000;10.67176
 612.89;    7.562;   -3.480;    0.000;11.04181
 613.04;    5.192;   -8.510;    0.000;13.70186
 613.20;   10.502;   -4.700;    0.000;15.20191
 613.35;    1.572;    1.580;    0.000;-0.00803
 613.51;    0.552;    6.820;    0.000;-6.26798
 613.66;    5.842;   -1.390;    0.000; 7.23207
 613.82;   10.752;    1.240;    0.000; 9.51212
 613.97;    3.202;   -5.800;    0.000; 9.00217
 614.13;    5.842;   -0.150;    0.000; 5.99222
 614.28;    8.842;   -4.300;    0.000;13.14228
 614.44;   -0.798;    6.910;    0.000;-7.70767
 614.59;    2.742;    1.130;    0.000; 1.61238
 614.75;    9.152;    1.860;    0.000; 7.29243
 614.90;    3.672;    8.430;    0.000;-4.75752
 615.05;    7.743;    1.540;    0.000; 6.20253
 615.21;   -1.247;   -0.420;    0.000;-0.82741
 615.36;    4.913;    1.070;    0.000; 3.84264
 615.52;   -1.517;    1.410;    0.000;-2.92731
 615.67;   12.743;    1.460;    0.000;11.28274
 615.83;   -0.767;    4.530;    0.000;-5.29721
 615.98;    7.583;    4.640;    0.000; 2.94284
 616.14;    2.833;   -0.150;    0.000; 2.98290
 616.29;    9.673;   -2.020;    0.000;11.69295
 616.45;   11.673;    0.220;    0.000;11.45300
 616.60;    0.743;   -3.540;    0.000; 4.28305
 616.76;   -2.587;   -3.790;    0.000; 1.20310
 616.91;   10.723;   -1.240;    0.000;11.96316
 617.06;    7.623;   -4.320;    0.000;11.94321
 617.22;    6.763;   -6.290;    0.000;13.05326
 617.37;    1.553;   -1.150;    0.000; 2.70331
 617.53;   15.363;   -2.130;    0.000;17.49336
 617.68;    3.753;    3.250;    0.000; 0.50341
 617.84;   12.463;   -1.140;    0.000;13.60347
 617.99;    4.284;   -0.530;    0.000; 4.81352
 618.15;    7.594;   -4.110;    0.000;11.70357
 618.30;   -0.046;    2.630;    0.000;-2.67638
 618.45;    2.844;    1.120;    0.000; 1.72367
 618.61;    6.264;    2.390;    0.000; 3.87372
 618.76;    9.864;   -0.870;    0.000;10.73378
 618.92;    1.704;    2.300;    0.000;-0.59617
 619.07;    7.074;    2.610;    0.000; 4.46388
 619.23;    8.324;    1.050;    0.000; 7.27393
 619.38;   13.324;    2.640;    0.000;10.68398
 619.54;   -0.926;    3.240;    0.000;-4.16597
 619.69;    2.044;  -12.720;    0.000;14.76409
 619.84;   -1.986;    1.150;    0.000;-3.13586
 620.00;    7.554;   -1.340;    0.000; 8.89419
 620.15;    5.884;    2.400;    0.000; 3.48424
 620.31;    2.894;    1.810;    0.000; 1.08429
 620.46;    1.084;    8.310;    0.000;-7.22566
 620.62;    1.634;   -6.010;    0.000; 7.64440
 620.77;   -1.466;    5.660;    0.000;-7.12555
 620.92;    9.184;    0.220;    0.000; 8.96450
 621.08;    2.335;    2.290;    0.000; 0.04455
 621.23;   11.055;   -6.100;    0.000;17.15460
 621.39;   -0.695;   -8.710;    0.000; 8.01465
 621.54;    4.765;   -3.810;    0.000; 8.57471
 621.70;   -2.745;   -2.860;    0.000; 0.11476
 621.85;    4.585;   -1.800;    0.000; 6.38481
 622.00;   -0.725;    0.910;    0.000;-1.63514
 622.16;    4.315;    6.530;    0.000;-2.21509
 622.31;   -0.535;   -1.450;    0.000; 0.91497
 622.47;    2.255;   -3.390;    0.000; 5.64502
 622.62;    4.805;    0.610;    0.000; 4.19507
 622.78;    5.845;    3.150;    0.000; 2.69512
 622.93;    3.585;  -13.660;    0.000;17.24517
 623.08;   14.205;    2.780;    0.000;11.42522
 623.24;   -2.985;   -3.420;    0.000; 0.43528
 623.39;    7.585;   -3.230;    0.000;10.81533
 623.55;    6.925;   -3.610;    0.000;10.53538
 623.70;   11.485;    1.610;    0.000; 9.87543
 623.85;    2.295;   -5.340;    0.000; 7.63548
 624.01;    6.776;    3.820;    0.000; 2.95553
 624.16;    2.386;    4.560;    0.000;-2.17441
 624.32;    2.126;   -1.320;    0.000; 3.44564
 624.47;    4.786;   -3.650;    0.000; 8.43569
 624.63;   11.746;   -1.110;    0.000;12.85574
 624.78;   -3.814;   -4.040;    0.000; 0.22579
 624.93;    0.776;   -1.730;    0.000; 2.50584
 625.09;    7.806;   -8.010;    0.000;15.81590
 625.24;   33.506;    6.620;    0.000;26.88595
 625.40;   10.636;    4.530;    0.000; 6.10600
 625.55;   13.746;   -5.660;    0.000;19.40605
 625.70;    6.266;   -6.600;    0.000;12.86610
 625.86;    5.406;   -1.510;    0.000; 6.91616
 626.01;    0.376;   -0.810;    0.000; 1.18621
 626.17;   13.006;   -4.270;    0.000;17.27626
 626.32;   18.256;    2.100;    0.000;16.15631
 626.47;   37.646;    0.780;    0.000;36.86636
 626.63;   12.096;    0.600;    0.000;11.49641
 626.78;   10.846;    6.620;    0.000; 4.22647
 626.94;    6.027;   -6.300;    0.000;12.32652
 627.09;    4.237;   -7.760;    0.000;11.99657
 627.24;    0.397;    2.060;    0.000;-1.66338
 627.40;    7.497;   -2.300;    0.000; 9.79667
 627.55;   -1.133;    0.720;    0.000;-1.85328
 627.71;    6.897;   -7.730;    0.000;14.62678
 627.86;    2.597;   -7.580;    0.000;10.17683
 628.01;    6.927;    4.980;    0.000; 1.94688
 628.17;   11.107;    1.850;    0.000; 9.25693
 628.32;    3.297;    3.550;    0.000;-0.25302
 628.47;    2.247;   -4.430;    0.000; 6.67703
 628.63;    7.027;    3.210;    0.000; 3.81709
 628.78;    4.007;    8.610;    0.000;-4.60286
 628.94;    3.647;    1.600;    0.000; 2.04719
 629.09;    6.147;    2.390;    0.000; 3.75724
 629.24;    9.217;    1.170;    0.000; 8.04729
 629.40;    2.577;   -5.040;    0.000; 7.61734
 629.55;    9.187;   -4.200;    0.000;13.38740
 629.71;    2.677;    2.200;    0.000; 0.47745
 629.86;   11.137;    1.760;    0.000; 9.37750
 630.01;   -1.822;    1.740;    0.000;-3.56245
 630.17;    6.238;   -0.910;    0.000; 7.14760
 630.32;   -4.152;    2.310;    0.000;-6.46235
 630.47;    7.408;    3.670;    0.000; 3.73771
 630.63;   -3.002;   -3.110;    0.000; 0.10776
 630.78;    4.558;    3.010;    0.000; 1.54781
 630.94;    4.738;   -3.590;    0.000; 8.32786
 631.09;    6.188;   -0.400;    0.000; 6.58791
 631.24;   -0.452;   -8.350;    0.000; 7.89797
 631.40;    4.068;   -2.510;    0.000; 6.57802
 631.55;    1.998;    4.530;    0.000;-2.53193
 631.70;    9.208;   -0.720;    0.000; 9.92812
 631.86;    7.308;    1.320;    0.000; 5.98817
 632.01;    5.748;   -8.270;    0.000;14.01822
 632.17;    3.198;    0.390;    0.000; 2.80828
 632.32;   14.368;   -8.040;    0.000;22.40833
 632.47;    0.508;    4.050;    0.000;-3.54162
 632.63;   -5.182;  -10.070;    0.000; 4.88843
 632.78;    4.838;   -3.270;    0.000; 8.10848
 632.93;   10.349;    3.880;    0.000; 6.46853
 633.09;    3.729;   -2.720;    0.000; 6.44859
 633.24;    9.149;    4.470;    0.000; 4.67864
 633.39;    1.419;   -3.990;    0.000; 5.40869
 633.55;    8.409;   -5.540;    0.000;13.94874
 633.70;    5.299;    2.420;    0.000; 2.87879
 633.86;   16.019;    0.200;    0.000;15.81884
 634.01;    7.309;   -1.570;    0.000; 8.87890
 634.16;    7.079;    4.290;    0.000; 2.78895
 634.32;    2.099;   -5.610;    0.000; 7.70900
 634.47;   10.119;   -4.600;    0.000;14.71905
 634.62;   10.659;   -4.990;    0.000;15.64910
 634.78;    5.319;    1.070;    0.000; 4.24916
 634.93;   -1.001;    4.080;    0.000;-5.08079
 635.08;    1.249;    1.200;    0.000; 0.04926
 635.24;    3.569;   -3.720;    0.000; 7.28931
 635.39;    5.119;    2.770;    0.000; 2.34936
 635.54;    1.919;    0.400;    0.000; 1.51941
 635.70;    7.389;   -4.610;    0.000;11.99947
 635.85;    8.290;   -3.830;    0.000;12.11952
 636.01;   20.630;   -0.850;    0.000;21.47957
 636.16;    6.980;   -3.960;    0.000;10.93962
 636.31;    1.430;   -1.400;    0.000; 2.82967
 636.47;    6.640;   -0.360;    0.000; 6.99972
 636.62;    7.800;    0.750;    0.000; 7.04978
 636.77;    6.720;   -5.320;    0.000;12.03983
 636.93;    5.850;   -2.610;    0.000; 8.45988
 637.08;    0.780;   -5.340;    0.000; 6.11993
 637.23;    2.270;    0.800;    0.000; 1.46998
 637.39;   -6.330;   -6.560;    0.000; 0.23003
 637.54;    8.550;    0.100;    0.000; 8.45009
 637.69;    5.890;   -0.640;    0.000; 6.53014
 637.85;    8.320;    9.660;    0.000;-1.33981
 638.00;    3.330;    3.450;    0.000;-0.11976
 638.15;    0.850;   -1.550;    0.000; 2.40029
 638.31;    3.770;    3.790;    0.000;-0.01966
 638.46;   13.620;   -0.760;    0.000;14.38040
 638.61;   -0.580;   -4.120;    0.000; 3.54045
 638.77;    8.311;   -9.680;    0.000;17.99050
 638.92;   -0.299;    1.290;    0.000;-1.58945
 639.07;    8.311;   -1.260;    0.000; 9.57060
 639.23;   -0.819;    1.670;    0.000;-2.48934
 639.38;    5.481;   -4.040;    0.000; 9.52071
 639.53;    2.881;    5.240;    0.000;-2.35924
 639.69;    4.831;   -1.420;    0.000; 6.25081
 639.84;    0.821;   -1.520;    0.000; 2.34086
 639.99;   12.491;    0.380;    0.000;12.11091
 640.15;   -0.979;   -3.550;    0.000; 2.57097
 640.30;    7.661;   -3.240;    0.000;10.90102
 640.45;    2.851;    6.060;    0.000;-3.20893
 640.61;    9.561;   -5.770;    0.000;15.33112
 640.76;    2.111;   -1.120;    0.000; 3.23117
 640.91;    5.001;   -6.530;    0.000;11.53122
 641.07;   13.071;   -0.450;    0.000;13.52128
 641.22;    1.261;   -2.870;    0.000; 4.13133
 641.37;   -2.989;    1.160;    0.000;-4.14862
 641.52;   11.091;    1.300;    0.000; 9.79143
 641.68;   -2.739;   -5.180;    0.000; 2.44148
 641.83;   11.922;    2.480;    0.000; 9.44153
 641.98;    3.682;   -1.760;    0.000; 5.44159
 642.14;    4.772;    1.160;    0.000; 3.61164
 642.29;   -5.928;   -0.200;    0.000;-5.72831
 642.44;    2.102;    1.490;    0.000; 0.61174
 642.60;    2.842;   -0.360;    0.000; 3.20179
 642.75;    3.512;   -7.520;    0.000;11.03184
 642.90;    3.962;    8.450;    0.000;-4.48810
 643.06;    4.782;   -0.320;    0.000; 5.10195
 643.21;    1.592;   -3.250;    0.000; 4.84200
 643.36;    4.942;    1.270;    0.000; 3.67205
 643.51;    3.982;   -7.960;    0.000;11.94210
 643.67;   -5.288;   -4.830;    0.000;-0.45785
 643.82;   -1.328;    5.130;    0.000;-6.45779
 643.97;    3.392;   -4.390;    0.000; 7.78226
 644.13;   -0.738;   -4.710;    0.000; 3.97231
 644.28;    7.962;    5.540;    0.000; 2.42236
 644.43;    1.342;    1.010;    0.000; 0.33241
 644.59;   10.742;   -1.940;    0.000;12.68247
 644.74;   -2.617;    1.020;    0.000;-3.63748
 644.89;    4.193;   -1.880;    0.000; 6.07257
 645.04;    8.693;    5.240;    0.000; 3.45262
 645.20;   -1.277;    0.030;    0.000;-1.30733
 645.35;    2.863;   -7.530;    0.000;10.39272
 645.50;    9.843;    4.170;    0.000; 5.67278
 645.66;    4.283;    0.390;    0.000; 3.89283
 645.81;   10.893;   -1.940;    0.000;12.83288
 645.96;    5.763;   -3.190;    0.000; 8.95293
 646.12;    5.693;    6.810;    0.000;-1.11702
 646.27;   -1.087;    0.870;    0.000;-1.95697
 646.42;    4.193;   -5.030;    0.000; 9.22309
 646.57;   -3.267;   -3.300;    0.000; 0.03314
 646.73;    8.293;   -2.270;    0.000;10.56319
 646.88;    7.153;    2.090;    0.000; 5.06324
 647.03;    6.053;   -3.250;    0.000; 9.30329
 647.19;    6.323;    2.350;    0.000; 3.97334
 647.34;    6.223;   -0.600;    0.000; 6.82340
 647.49;    2.863;   -0.450;    0.000; 3.31345
 647.64;   11.203;   -1.260;    0.000;12.46350
 647.80;   -0.316;   -4.970;    0.000; 4.65355
 647.95;    0.454;    0.720;    0.000;-0.26640
 648.10;   -2.026;   -0.850;    0.000;-1.17634
 648.26;    3.064;    5.960;    0.000;-2.89629
 648.41;    0.644;   -3.790;    0.000; 4.43376
 648.56;   10.734;   -2.740;    0.000;13.47381
 648.71;   -4.236;    1.000;    0.000;-5.23614
 648.87;    7.704;   -1.460;    0.000; 9.16391
 649.02;    0.874;   -1.330;    0.000; 2.20397
 649.17;    5.484;   -8.120;    0.000;13.60402
 649.32;    4.594;   -6.190;    0.000;10.78407
 649.48;    8.704;    3.570;    0.000; 5.13412
 649.63;   -0.786;   -2.620;    0.000; 1.83417
 649.78;    3.524;   -3.410;    0.000; 6.93422
 649.94;    9.974;   -3.980;    0.000;13.95428
 650.09;    8.714;    2.090;    0.000; 6.62433
 650.24;    2.854;   -0.770;    0.000; 3.62438
 650.39;   11.674;   -1.460;    0.000;13.13443
 650.55;    1.904;   -4.750;    0.000; 6.65448
 650.70;   11.265;   -5.420;    0.000;16.68453
 650.85;   -2.295;   -3.950;    0.000; 1.65459
 651.00;    4.535;    2.260;    0.000; 2.27464
 651.16;    3.495;    1.660;    0.000; 1.83469
 651.31;    9.405;   -0.640;    0.000;10.04474
 651.46;    6.305;   -0.520;    0.000; 6.82479
 651.61;    5.755;    0.260;    0.000; 5.49484
 651.77;    2.865;    4.440;    0.000;-1.57510
 651.92;    9.315;   -7.000;    0.000;16.31495
 652.07;   -1.465;   -3.510;    0.000; 2.04500
 652.22;    8.635;   -1.260;    0.000; 9.89505
 652.38;    3.835;    2.120;    0.000; 1.71510
 652.53;   12.615;    4.530;    0.000; 8.08516
 652.68;    0.285;   -5.260;    0.000; 5.54521
 652.83;    6.065;    1.970;    0.000; 4.09526
 652.99;    0.685;   -5.910;    0.000; 6.59531
 653.14;    7.985;   -5.670;    0.000;13.65536
 653.29;   -1.635;    3.380;    0.000;-5.01459
 653.44;    8.215;    3.020;    0.000; 5.19547
 653.60;   -3.534;    0.070;    0.000;-3.60448
 653.75;    6.456;    0.890;    0.000; 5.56557
 653.90;    2.706;   -3.610;    0.000; 6.31562
 654.05;    3.246;   -3.360;    0.000; 6.60567
 654.21;   -4.334;   -1.060;    0.000;-3.27428
 654.36;    4.926;   -2.700;    0.000; 7.62578
 654.51;    0.286;   -8.630;    0.000; 8.91583
 654.66;    2.236;    2.640;    0.000;-0.40412
 654.82;    3.326;    3.090;    0.000; 0.23593
 654.97;   16.376;    1.810;    0.000;14.56598
 655.12;    0.956;    3.410;    0.000;-2.45397
 655.27;    8.746;   -0.330;    0.000; 9.07609
 655.43;   -2.244;    6.220;    0.000;-8.46386
 655.58;   12.106;   -1.270;    0.000;13.37619
 655.73;    5.316;   -3.290;    0.000; 8.60624
 655.88;   13.076;   -0.390;    0.000;13.46629
 656.04;   -3.214;   -5.870;    0.000; 2.65634
 656.19;    4.986;   -0.220;    0.000; 5.20640
 656.34;    4.586;   -0.870;    0.000; 5.45645
 656.49;    9.276;    0.640;    0.000; 8.63650
 656.65;    5.677;   -7.280;    0.000;12.95655
 656.80;    0.087;    0.260;    0.000;-0.17340
 656.95;    0.397;  -12.330;    0.000;12.72665
 657.10;   13.567;    0.840;    0.000;12.72671
 657.25;    3.007;   -4.140;    0.000; 7.14676
 657.41;    2.117;    4.420;    0.000;-2.30319
 657.56;    1.387;   -1.540;    0.000; 2.92686
 657.71;    8.017;    2.840;    0.000; 5.17691
 657.86;   -4.643;    1.180;    0.000;-5.82303
 658.02;    7.967;    2.510;    0.000; 5.45702
 658.17;    2.237;   -7.420;    0.000; 9.65707
 658.32;    0.307;    0.710;    0.000;-0.40288
 658.47;    3.817;   -2.540;    0.000; 6.35717
 658.62;    2.337;    0.010;    0.000; 2.32722
 658.78;   -6.963;    1.880;    0.000;-8.84272
 658.93;    3.147;    3.210;    0.000;-0.06267
 659.08;    2.427;    0.950;    0.000; 1.47738
 659.23;    4.397;   -8.040;    0.000;12.43743
 659.39;   -2.663;   -7.670;    0.000; 5.00748
 659.54;    7.768;   -1.200;    0.000; 8.96753
 659.69;    2.928;    1.130;    0.000; 1.79759
 659.84;    6.288;   -0.040;    0.000; 6.32764
 659.99;    0.388;   -2.610;    0.000; 2.99769
 660.15;   13.638;   -4.340;    0.000;17.97774
 660.30;   -5.402;   -3.540;    0.000;-1.86221
 660.45;    4.008;    3.670;    0.000; 0.33784
 660.60;    1.858;   -3.550;    0.000; 5.40790
 660.75;    1.858;    2.440;    0.000;-0.58205
 660.91;    1.618;   -0.170;    0.000; 1.78800
 661.06;    6.368;   -5.510;    0.000;11.87805
 661.21;    2.598;    2.510;    0.000; 0.08810
 661.36;    6.818;    1.220;    0.000; 5.59816
 661.51;   -5.662;   -5.930;    0.000; 0.26821
 661.67;    2.088;   -3.040;    0.000; 5.12826
 661.82;    6.168;    3.360;    0.000; 2.80831
 661.97;    5.038;    1.220;    0.000; 3.81836
 662.12;   -2.792;   -4.820;    0.000; 2.02841
 662.27;    4.608;   -9.340;    0.000;13.94847
 662.43;    4.169;   -3.490;    0.000; 7.65852
 662.58;   -1.901;    0.290;    0.000;-2.19143
 662.73;    6.769;   -6.910;    0.000;13.67862
 662.88;    6.039;    1.260;    0.000; 4.77867
 663.03;   -2.011;   -2.440;    0.000; 0.42872
 663.19;    8.009;   -0.060;    0.000; 8.06878
 663.34;   -0.381;    1.940;    0.000;-2.32117
 663.49;   11.349;   -4.200;    0.000;15.54888
 663.64;    6.849;    6.630;    0.000; 0.21893
 663.79;    3.719;    0.550;    0.000; 3.16898
 663.95;   -0.021;   -0.440;    0.000; 0.41903
 664.10;   -0.541;    3.170;    0.000;-3.71091
 664.25;   -3.611;    3.590;    0.000;-7.20086
 664.40;    5.909;    2.090;    0.000; 3.81919
 664.55;    1.919;    0.700;    0.000; 1.21924
 664.70;   11.059;    1.640;    0.000; 9.41929
 664.86;   -2.791;   -9.450;    0.000; 6.65934
 665.01;   10.709;    0.240;    0.000;10.46940
 665.16;    3.189;    5.110;    0.000;-1.92055
 665.31;   10.439;    1.640;    0.000; 8.79950
 665.46;    4.180;   -5.890;    0.000;10.06955
 665.62;    1.060;    5.410;    0.000;-4.35040
 665.77;    1.550;   -4.480;    0.000; 6.02966
 665.92;    7.530;    2.660;    0.000; 4.86971
 666.07;   -0.320;   -4.860;    0.000; 4.53976
 666.22;    5.530;   -2.920;    0.000; 8.44981
 666.37;   -1.910;   -5.700;    0.000; 3.78986
 666.53;   -0.600;    1.220;    0.000;-1.82009
 666.68;    4.640;   -1.330;    0.000; 5.96997
 666.83;    1.760;   -0.630;    0.000; 2.39002
 666.98;    4.480;   -8.080;    0.000;12.56007
 667.13;    8.840;   -3.040;    0.000;11.88012
 667.28;    7.270;    3.150;    0.000; 4.12017
 667.44;    2.270;    2.930;    0.000;-0.65978
 667.59;    6.430;   -5.570;    0.000;12.00028
 667.74;    3.730;   -8.920;    0.000;12.65033
 667.89;    1.660;   -4.680;    0.000; 6.34038
 668.04;    4.850;   -4.620;    0.000; 9.47043
 668.19;    2.860;   -9.190;    0.000;12.05048
 668.35;    8.571;    0.090;    0.000; 8.48053
 668.50;    8.271;   -2.280;    0.000;10.55059
 668.65;    2.091;   -3.180;    0.000; 5.27064
 668.80;    8.031;   -8.500;    0.000;16.53069
 668.95;   11.191;    3.790;    0.000; 7.40074
 669.10;    5.171;   -3.870;    0.000; 9.04079
 669.26;    3.551;    0.640;    0.000; 2.91084
 669.41;    4.461;   -5.300;    0.000; 9.76090
 669.56;    3.161;    4.010;    0.000;-0.84905
 669.71;   -0.279;   -5.110;    0.000; 4.83100
 669.86;    2.721;    4.850;    0.000;-2.12895
 670.01;   -5.129;   -6.780;    0.000; 1.65110
 670.17;   14.251;   -4.740;    0.000;18.99115
 670.32;   -0.959;    2.410;    0.000;-3.36879
 670.47;   12.501;   -4.080;    0.000;16.58126
 670.62;    4.151;    3.450;    0.000; 0.70131
 670.77;    7.931;   -6.040;    0.000;13.97136
 670.92;   -1.869;   -2.240;    0.000; 0.37141
 671.07;    3.481;   -0.700;    0.000; 4.18147
 671.23;   10.552;   -1.800;    0.000;12.35152
 671.38;    4.962;    3.620;    0.000; 1.34157
 671.53;   -1.228;   -4.400;    0.000; 3.17162
 671.68;    8.392;   -0.520;    0.000; 8.91167
 671.83;    3.742;    1.450;    0.000; 2.29172
 671.98;    3.612;    3.680;    0.000;-0.06822
 672.13;    6.022;   -1.680;    0.000; 7.70183
 672.29;    3.642;    0.700;    0.000; 2.94188
 672.44;   -5.578;   -7.900;    0.000; 2.32193
 672.59;    7.082;   -3.130;    0.000;10.21198
 672.74;   -0.788;   -6.060;    0.000; 5.27203
 672.89;    4.292;   -8.110;    0.000;12.40209
 673.04;    5.172;    8.920;    0.000;-3.74786
 673.19;    5.922;    2.320;    0.000; 3.60219
 673.35;    7.052;   -9.380;    0.000;16.43224
 673.50;    8.132;    0.920;    0.000; 7.21229
 673.65;    4.162;    0.270;    0.000; 3.89234
 673.80;    6.812;   -4.210;    0.000;11.02240
 673.95;   -5.318;   -4.940;    0.000;-0.37755
 674.10;    4.092;   -4.920;    0.000; 9.01250
 674.25;   -0.147;    4.450;    0.000;-4.59745
 674.40;    0.813;    5.720;    0.000;-4.90740
 674.56;    3.763;   -0.010;    0.000; 3.77266
 674.71;    6.553;    3.470;    0.000; 3.08271
 674.86;    6.013;   -3.210;    0.000; 9.22276
 675.01;    8.983;    4.730;    0.000; 4.25281
 675.16;    1.103;   -0.940;    0.000; 2.04286
 675.31;    6.723;    5.450;    0.000; 1.27291
 675.46;   -0.607;    0.410;    0.000;-1.01703
 675.61;    6.323;   10.380;    0.000;-4.05698
 675.77;    1.613;   -2.890;    0.000; 4.50307
 675.92;    6.743;   -5.500;    0.000;12.24312
 676.07;    1.313;   -2.170;    0.000; 3.48317
 676.22;    2.573;   -0.100;    0.000; 2.67322
 676.37;   -5.027;   -3.060;    0.000;-1.96672
 676.52;    4.613;    2.090;    0.000; 2.52333
 676.67;    7.003;    4.740;    0.000; 2.26338
 676.82;    0.983;   -1.230;    0.000; 2.21343
 676.97;    7.003;   -0.660;    0.000; 7.66348
 677.13;   10.924;   -1.960;    0.000;12.88353
 677.28;    1.134;   -2.450;    0.000; 3.58359
 677.43;   -1.926;    2.900;    0.000;-4.82636
 677.58;   -0.896;    2.450;    0.000;-3.34631
 677.73;    5.694;   -3.430;    0.000; 9.12374
 677.88;    3.154;   -6.780;    0.000; 9.93379
 678.03;    7.444;   -4.310;    0.000;11.75384
 678.18;    4.684;   -4.340;    0.000; 9.02390
 678.33;    1.984;    1.010;    0.000; 0.97395
 678.49;    2.114;   -3.120;    0.000; 5.23400
 678.64;    7.154;    1.030;    0.000; 6.12405
 678.79;    3.454;    3.530;    0.000;-0.07590
 678.94;   -5.356;    6.250;    0.000;-11.60584
 679.09;   -1.306;   -2.350;    0.000; 1.04421
 679.24;   -1.606;   -0.080;    0.000;-1.52574
 679.39;    4.054;    5.160;    0.000;-1.10569
 679.54;    6.984;   -0.560;    0.000; 7.54436
 679.69;   -0.146;    0.250;    0.000;-0.39559
 679.84;    9.204;   -0.630;    0.000; 9.83447
 680.00;    7.255;   -6.850;    0.000;14.10452
 680.15;    7.595;   -1.620;    0.000; 9.21457
 680.30;   -5.005;   -2.780;    0.000;-2.22538
 680.45;   10.585;   -5.690;    0.000;16.27467
 680.60;   -0.845;   -0.290;    0.000;-0.55528
 680.75;    5.955;    0.530;    0.000; 5.42478
 680.90;    6.865;    0.200;    0.000; 6.66483
 681.05;    1.425;    7.190;    0.000;-5.76512
 681.20;    9.685;    0.410;    0.000; 9.27493
 681.35;    6.405;    3.250;    0.000; 3.15498
 681.50;   -4.145;    3.060;    0.000;-7.20497
 681.66;   -0.005;   -3.960;    0.000; 3.95509
 681.81;   -2.905;    6.700;    0.000;-9.60486
 681.96;    6.115;   -0.740;    0.000; 6.85519
 682.11;    8.855;   -7.710;    0.000;16.56524
 682.26;    4.475;    6.460;    0.000;-1.98471
 682.41;    5.605;   -2.990;    0.000; 8.59534
 682.56;    1.885;   -5.600;    0.000; 7.48540
 682.71;    1.195;   -8.520;    0.000; 9.71545
 682.86;    1.395;    3.220;    0.000;-1.82450
 683.01;   -3.114;   -0.560;    0.000;-2.55445
 683.16;    1.016;   -3.760;    0.000; 4.77560
 683.31;    2.256;   -1.640;    0.000; 3.89566
 683.46;    0.366;   -0.660;    0.000; 1.02571
 683.62;    2.876;   -2.100;    0.000; 4.97576
 683.77;   14.256;    3.730;    0.000;10.52581
 683.92;    0.126;   -0.620;    0.000; 0.74586
 684.07;    5.626;    1.880;    0.000; 3.74591
 684.22;   -3.534;   -2.500;    0.000;-1.03403
 684.37;    9.236;   -2.910;    0.000;12.14602
 684.52;   -0.924;    6.170;    0.000;-7.09393
 684.67;   -4.154;   -6.020;    0.000; 1.86612
 684.82;   -2.404;    1.940;    0.000;-4.34383
 684.97;    9.576;   -6.780;    0.000;16.35622
 685.12;    4.056;   -0.220;    0.000; 4.27628
 685.27;   10.546;   -9.050;    0.000;19.59633
 685.42;    5.206;   -4.060;    0.000; 9.26638
 685.57;    5.326;   -0.870;    0.000; 6.19643
 685.72;    5.256;    6.660;    0.000;-1.40352
 685.88;    5.397;   -3.100;    0.000; 8.49653
 686.03;    5.287;    0.630;    0.000; 4.65659
 686.18;    8.537;    4.260;    0.000; 4.27664
 686.33;   -2.893;    1.270;    0.000;-4.16331
 686.48;    5.447;   -0.970;    0.000; 6.41674
 686.63;    3.207;   -1.090;    0.000; 4.29679
 686.78;    2.407;    7.210;    0.000;-4.80316
 686.93;    0.207;   -3.050;    0.000; 3.25690
 687.08;   -0.533;   -0.240;    0.000;-0.29305
 687.23;   -1.993;   -2.530;    0.000; 0.53700
 687.38;    4.177;   -0.790;    0.000; 4.96705
 687.53;    3.257;  -11.260;    0.000;14.51710
 687.68;    7.637;    6.460;    0.000; 1.17716
 687.83;    5.057;    2.000;    0.000; 3.05721
 687.98;    3.507;   -1.970;    0.000; 5.47726
 688.13;    2.727;   -0.500;    0.000; 3.22731
 688.28;    7.707;    4.940;    0.000; 2.76736
 688.43;    6.977;    6.710;    0.000; 0.26741
 688.58;    1.777;   -6.580;    0.000; 8.35747
 688.73;    0.078;   -3.710;    0.000; 3.78752
 688.89;    1.518;    1.340;    0.000; 0.17757
 689.04;    4.778;   -7.660;    0.000;12.43762
 689.19;   -0.382;    1.610;    0.000;-1.99233
 689.34;   -0.652;    1.430;    0.000;-2.08228
 689.49;    3.908;    5.950;    0.000;-2.04222
 689.64;    2.118;   -3.000;    0.000; 5.11783
 689.79;    1.208;    4.270;    0.000;-3.06212
 689.94;   -3.482;   -0.460;    0.000;-3.02207
 690.09;    3.168;   -7.010;    0.000;10.17798
 690.24;   -0.332;   -2.310;    0.000; 1.97803
 690.39;    4.388;   -3.020;    0.000; 7.40809
 690.54;    1.568;    1.950;    0.000;-0.38186
 690.69;   21.278;   -3.530;    0.000;24.80819
 690.84;   33.138;    0.270;    0.000;32.86824
 690.99;   23.678;   -0.200;    0.000;23.87829
 691.14;   11.908;   -0.700;    0.000;12.60835
 691.29;    7.158;   -9.280;    0.000;16.43840
 691.44;    1.118;   -5.350;    0.000; 6.46845
 691.59;    3.678;   -5.570;    0.000; 9.24850
 691.74;    2.399;   -3.730;    0.000; 6.12855
 691.89;    9.079;   -0.570;    0.000; 9.64860
 692.04;    1.039;   -1.880;    0.000; 2.91866
 692.19;   10.129;   -2.780;    0.000;12.90871
 692.34;   -1.811;   -1.870;    0.000; 0.05876
 692.49;    5.849;   -3.550;    0.000; 9.39881
 692.64;   -3.181;   -9.420;    0.000; 6.23886
 692.79;    9.179;   -9.180;    0.000;18.35891
 692.94;    1.949;   -3.120;    0.000; 5.06897
 693.09;    9.749;   -0.390;    0.000;10.13902
 693.24;    2.259;    1.980;    0.000; 0.27907
 693.39;    3.659;    0.880;    0.000; 2.77912
 693.54;    0.049;   -1.570;    0.000; 1.61917
 693.69;   13.799;    2.690;    0.000;11.10922
 693.84;    1.309;    1.230;    0.000; 0.07928
 693.99;    5.399;   -6.010;    0.000;11.40933
 694.14;   -4.341;    2.580;    0.000;-6.92062
 694.29;   10.199;    1.260;    0.000; 8.93943
 694.44;    2.519;    2.680;    0.000;-0.16052
 694.59;    4.370;   -5.100;    0.000; 9.46953
 694.74;    0.170;   -2.560;    0.000; 2.72959
 694.89;    8.840;    2.340;    0.000; 6.49964
 695.04;    7.770;   -4.240;    0.000;12.00969
 695.19;   10.970;   -4.070;    0.000;15.03974
 695.34;   -0.550;   -7.780;    0.000; 7.22979
 695.49;   -0.540;    0.360;    0.000;-0.90016
 695.64;    4.300;    2.610;    0.000; 1.68990
 695.79;    5.400;    5.360;    0.000; 0.03995
 695.94;   -3.500;   -1.350;    0.000;-2.15000
 696.09;    0.540;   -6.500;    0.000; 7.04000
 696.24;    1.810;    5.340;    0.000;-3.53000
 696.39;    7.040;    0.300;    0.000; 6.74000
 696.54;   12.610;    3.770;    0.000; 8.84000
 696.69;    5.100;   -3.170;    0.000; 8.27000
 696.84;    2.970;  -12.190;    0.000;15.16000
 696.99;    8.350;   -1.740;    0.000;10.09000
 697.14;   -0.140;    9.860;    0.000;-10.00000
 697.29;   -4.060;   -2.530;    0.000;-1.53000
 697.44;    6.670;   -2.920;    0.000; 9.59000
 697.59;    2.260;    1.340;    0.000; 0.92000
 697.74;    4.510;   -6.340;    0.000;10.85000
 697.89;   11.460;   -2.090;    0.000;13.55000
 698.04;    3.700;   -5.330;    0.000; 9.03000
 698.19;   12.210;   -3.430;    0.000;15.64000
 698.34;   -0.190;    2.170;    0.000;-2.36000
 698.49;    5.970;    3.560;    0.000; 2.41000
 698.64;    7.200;   -5.870;    0.000;13.07000
 698.79;    5.420;    6.230;    0.000;-0.81000
 698.94;    0.380;    0.430;    0.000;-0.05000
 699.09;    3.580;    2.630;    0.000; 0.95000
 699.24;   -1.030;    4.460;    0.000;-5.49000
 699.39;    4.550;   -4.220;    0.000; 8.77000
 699.54;    3.380;   -1.810;    0.000; 5.19000
 699.69;    9.290;   -7.660;    0.000;16.95000
 699.84;    2.260;   -4.300;    0.000; 6.56000
 699.99;    2.680;   -3.480;    0.000; 6.16000
 700.14;    5.720;    3.740;    0.000; 1.98000
 700.29;    8.050;    3.140;    0.000; 4.91000
 700.44;   -1.030;   -2.300;    0.000; 1.27000
 700.59;    3.080;   -4.550;    0.000; 7.63000
 700.74;    3.710;   -6.330;    0.000;10.04000
 700.89;    4.170;   -3.370;    0.000; 7.54000
 701.04;   -6.000;   -7.380;    0.000; 1.38000
 701.19;   11.460;   -4.260;    0.000;15.72000
 701.34;   -0.030;   -9.600;    0.000; 9.57000
 701.49;    1.810;   -0.160;    0.000; 1.97000
 701.64;   -2.160;   -3.190;    0.000; 1.03000
 701.79;   10.600;    4.280;    0.000; 6.32000
 701.94;    0.420;   -1.650;    0.000; 2.07000
 702.09;   14.540;   -3.410;    0.000;17.95000
 702.24;    3.460;    2.140;    0.000; 1.32000
 702.39;    5.130;    1.650;    0.000; 3.48000
 702.53;    2.780;   -2.420;    0.000; 5.20000
 702.68;    9.360;   -5.180;    0.000;14.54000
 702.83;    0.350;   -3.310;    0.000; 3.66000
 702.98;    3.570;   -4.490;    0.000; 8.06000
 703.13;    5.300;    8.930;    0.000;-3.63000
 703.28;    3.610;   -2.740;    0.000; 6.35000
 703.43;    3.360;    5.170;    0.000;-1.81000
 703.58;    4.980;    1.770;    0.000; 3.21000
 703.73;   -3.620;    1.470;    0.000;-5.09000
 703.88;    7.590;   -4.600;    0.000;12.19000
 704.03;   -0.150;   -2.720;    0.000; 2.57000
 704.18;    3.630;   -0.300;    0.000; 3.93000
 704.33;    2.950;    6.860;    0.000;-3.91000
 704.48;    4.720;    0.140;    0.000; 4.58000
 704.63;    6.490;    0.220;    0.000; 6.27000
 704.78;    8.900;    4.710;    0.000; 4.19000
 704.93;    1.790;    2.220;    0.000;-0.43000
 705.08;    0.060;   -7.550;    0.000; 7.61000
 705.23;    1.760;   -1.500;    0.000; 3.26000
 705.38;    4.470;   -1.390;    0.000; 5.86000
 705.52;    2.670;   -5.750;    0.000; 8.42000
 705.67;    4.240;    1.570;    0.000; 2.67000
 705.82;    3.690;    3.600;    0.000; 0.09000
 705.97;    5.910;   -4.210;    0.000;10.12000
 706.12;    3.910;    1.470;    0.000; 2.44000
 706.27;   -1.260;   -1.720;    0.000; 0.46000
 706.42;    7.590;   -5.080;    0.000;12.67000
 706.57;   10.350;   -4.900;    0.000;15.25000
 706.72;   10.920;   -1.670;    0.000;12.59000
 706.87;   -3.690;    1.170;    0.000;-4.86000
 707.02;    3.400;    2.640;    0.000; 0.76000
 707.17;    6.100;    7.860;    0.000;-1.76000
 707.32;    1.560;   -3.880;    0.000; 5.44000
 707.47;   -2.480;   -1.560;    0.000;-0.92000
 707.62;    4.890;    0.990;    0.000; 3.90000
 707.76;    4.200;    5.790;    0.000;-1.59000
 707.91;    2.970;   -5.630;    0.000; 8.60000
 708.06;    5.780;   -4.460;    0.000;10.24000
 708.21;   13.120;    6.230;    0.000; 6.89000
 708.36;    7.400;    1.920;    0.000; 5.48000
 708.51;    5.990;   -0.600;    0.000; 6.59000
 708.66;    9.990;   -1.540;    0.000;11.53000
 708.81;   -2.140;    5.990;    0.000;-8.13000
 708.96;    9.110;   -1.480;    0.000;10.59000
 709.11;   -1.050;    0.880;    0.000;-1.93000
 709.26;    5.070;   -1.910;    0.000; 6.98000
 709.41;    5.020;    1.090;    0.000; 3.93000
 709.55;    7.580;    0.790;    0.000; 6.79000
 709.70;    2.150;   -8.740;    0.000;10.89000
 709.85;    6.050;   -4.960;    0.000;11.01000
 710.00;    8.470;   -2.240;    0.000;10.71000
 710.15;    3.590;   -4.420;    0.000; 8.01000
 710.30;    3.960;   -7.570;    0.000;11.53000
 710.45;   -0.330;   -3.020;    0.000; 2.69000
 710.60;    0.000;   -0.400;    0.000; 0.40000
 710.75;    3.990;   -8.170;    0.000;12.16000
 710.90;   -6.280;    4.380;    0.000;-10.66000
 711.05;   -1.790;   -3.900;    0.000; 2.11000
 711.19;    3.040;    6.060;    0.000;-3.02000
 711.34;   11.060;   -7.620;    0.000;18.68000
 711.49;    7.350;    4.410;    0.000; 2.94000
 711.64;   -1.600;   -0.620;    0.000;-0.98000
 711.79;   -4.380;   -7.250;    0.000; 2.87000
 711.94;    2.700;   -3.840;    0.000; 6.54000
 712.09;    3.090;    5.160;    0.000;-2.07000
 712.24;    2.110;    2.270;    0.000;-0.16000
 712.39;    3.030;   -3.610;    0.000; 6.64000
 712.54;    3.220;   10.370;    0.000;-7.15000
 712.68;   12.300;    2.340;    0.000; 9.96000
 712.83;    5.040;   -4.960;    0.000;10.00000
 712.98;    0.350;   -2.800;    0.000; 3.15000
 713.13;    2.160;   -3.400;    0.000; 5.56000
 713.28;   -5.340;   -6.880;    0.000; 1.54000
 713.43;    3.050;    1.030;    0.000; 2.02000
 713.58;   -0.480;   -0.860;    0.000; 0.38000
 713.73;    8.310;   -0.990;    0.000; 9.30000
 713.88;    4.680;   -6.350;    0.000;11.03000
 714.03;    2.060;    2.570;    0.000;-0.51000
 714.17;   -4.880;   -0.450;    0.000;-4.43000
 714.32;    6.180;    0.730;    0.000; 5.45000
 714.47;    4.180;  -11.200;    0.000;15.38000
 714.62;   -2.690;    0.930;    0.000;-3.62000
 714.77;    6.570;   -4.840;    0.000;11.41000
 714.92;    0.510;    0.550;    0.000;-0.04000
 715.07;    2.950;    3.320;    0.000;-0.37000
 715.22;    0.840;   -7.280;    0.000; 8.12000
 715.36;   -1.300;   -3.330;    0.000; 2.03000
 715.51;   -0.660;   -0.610;    0.000;-0.05000
 715.66;    5.840;   -1.080;    0.000; 6.92000
 715.81;   -0.060;   -0.600;    0.000; 0.54000
 715.96;    0.900;   -1.700;    0.000; 2.60000
 716.11;    4.260;    1.520;    0.000; 2.74000
 716.26;    5.320;    0.040;    0.000; 5.28000
 716.41;    0.610;    3.170;    0.000;-2.56000
 716.55;   -6.410;    7.290;    0.000;-13.70000
 716.70;   -0.370;   -5.460;    0.000; 5.09000
 716.85;   -7.450;    1.910;    0.000;-9.36000
 717.00;    8.600;    5.080;    0.000; 3.52000
 717.15;    2.440;   -6.550;    0.000; 8.99000
 717.30;    7.530;   -1.580;    0.000; 9.11000
 717.45;    7.060;   -4.250;    0.000;11.31000
 717.60;    3.410;    1.890;    0.000; 1.52000
 717.74;   -0.110;    0.600;    0.000;-0.71000
 717.89;    1.000;    0.890;    0.000; 0.11000
 718.04;    3.160;   -0.420;    0.000; 3.58000
 718.19;    3.420;    5.800;    0.000;-2.38000
 718.34;   -3.190;   -1.660;    0.000;-1.53000
 718.49;   -1.840;    0.430;    0.000;-2.27000
 718.64;   -1.300;    8.150;    0.000;-9.45000
 718.78;   -2.800;   -2.020;    0.000;-0.78000
 718.93;   -0.750;   -1.510;    0.000; 0.76000
 719.08;    4.970;   -3.080;    0.000; 8.05000
 719.23;   -1.810;   -0.860;    0.000;-0.95000
 719.38;    4.110;   -4.570;    0.000; 8.68000
 719.53;   -4.110;   -0.250;    0.000;-3.86000
 719.68;   13.380;   -1.080;    0.000;14.46000
 719.82;    8.600;   -1.340;    0.000; 9.94000
 719.97;    4.580;    6.850;    0.000;-2.27000
 720.12;   -3.150;    2.030;    0.000;-5.18000
 720.27;    3.840;    2.680;    0.000; 1.16000
 720.42;   -2.340;    3.240;    0.000;-5.58000
 720.57;   10.430;    0.840;    0.000; 9.59000
 720.71;    3.610;   -0.020;    0.000; 3.63000
 720.86;    3.220;   -5.530;    0.000; 8.75000
 721.01;    1.490;    1.750;    0.000;-0.26000
 721.16;    0.290;   -4.230;    0.000; 4.52000
 721.31;    3.680;   -2.520;    0.000; 6.20000
 721.46;    6.700;    0.010;    0.000; 6.69000
 721.61;    0.700;    1.380;    0.000;-0.68000
 721.75;   -3.950;    1.920;    0.000;-5.87000
 721.90;    3.070;   -2.220;    0.000; 5.29000
 722.05;    3.660;    2.450;    0.000; 1.21000
 722.20;   -2.840;   -5.270;    0.000; 2.43000
 722.35;    2.920;   -1.320;    0.000; 4.24000
 722.50;    1.160;    3.810;    0.000;-2.65000
 722.64;    2.390;   -6.450;    0.000; 8.84000
 722.79;    5.790;   -1.100;    0.000; 6.89000
 722.94;   -0.160;   -6.190;    0.000; 6.03000
 723.09;    6.860;   -1.980;    0.000; 8.84000
 723.24;    7.620;    2.230;    0.000; 5.39000
 723.39;   -2.160;   -0.560;    0.000;-1.60000
 723.53;    4.430;    2.250;    0.000; 2.18000
 723.68;   -4.510;    2.660;    0.000;-7.17000
 723.83;    8.550;    1.540;    0.000; 7.01000
 723.98;   -1.820;   -8.230;    0.000; 6.41000
 724.13;    0.790;   -3.600;    0.000; 4.39000
 724.27;    4.730;   -6.300;    0.000;11.03000
 724.42;    1.230;    4.380;    0.000;-3.15000
 724.57;    0.690;    1.980;    0.000;-1.29000
 724.72;   -0.520;    0.210;    0.000;-0.73000
 724.87;   -2.200;   -0.080;    0.000;-2.12000
 725.02;    4.940;   -5.150;    0.000;10.09000
 725.16;    1.000;   -3.740;    0.000; 4.74000
 725.31;   11.530;    0.120;    0.000;11.41000
 725.46;    2.380;   -5.940;    0.000; 8.32000
 725.61;    1.080;   -1.190;    0.000; 2.27000
 725.76;   -1.130;    0.390;    0.000;-1.52000
 725.90;   -0.740;    2.650;    0.000;-3.39000
 726.05;    5.660;    3.370;    0.000; 2.29000
 726.20;   -3.370;   -4.830;    0.000; 1.46000
 726.35;    5.200;   -0.860;    0.000; 6.06000
 726.50;   -4.780;   -1.420;    0.000;-3.36000
 726.65;    1.950;   -5.180;    0.000; 7.13000
 726.79;    3.200;    3.800;    0.000;-0.60000
 726.94;    7.140;    2.400;    0.000; 4.74000
 727.09;    2.360;   -4.790;    0.000; 7.15000
 727.24;    4.680;   -3.670;    0.000; 8.35000
 727.39;    0.050;    2.530;    0.000;-2.48000
 727.53;    2.050;    3.530;    0.000;-1.48000
 727.68;    5.920;   -2.240;    0.000; 8.16000
 727.83;   -1.150;   -4.990;    0.000; 3.84000
 727.98;    1.180;   -1.940;    0.000; 3.12000
 728.13;   -2.340;    0.070;    0.000;-2.41000
 728.27;   -3.680;   -3.540;    0.000;-0.14000
 728.42;    1.310;    4.040;    0.000;-2.73000
 728.57;    8.820;    0.070;    0.000; 8.75000
 728.72;   -2.770;   -2.700;    0.000;-0.07000
 728.87;    7.350;    0.540;    0.000; 6.81000
 729.01;    6.750;   -0.060;    0.000; 6.81000
 729.16;    5.050;    3.240;    0.000; 1.81000
 729.31;    1.330;    3.130;    0.000;-1.80000
 729.46;   11.370;    2.110;    0.000; 9.26000
 729.60;    8.190;    3.240;    0.000; 4.95000
 729.75;    5.770;   -5.100;    0.000;10.87000
 729.90;    8.230;    2.340;    0.000; 5.89000
 730.05;   40.110;    1.630;    0.000;38.48000
 730.20;   28.710;   -0.370;    0.000;29.08000
 730.34;   22.280;   -0.840;    0.000;23.12000
 730.49;    9.310;   -0.140;    0.000; 9.45000
 730.64;    5.340;   -1.560;    0.000; 6.90000
 730.79;    6.020;    2.470;    0.000; 3.55000
 730.94;    4.950;    5.180;    0.000;-0.23000
 731.08;   10.810;   -1.810;    0.000;12.62000
 731.23;   12.560;   -3.200;    0.000;15.76000
 731.38;    2.550;    5.780;    0.000;-3.23000
 731.53;    7.120;    3.240;    0.000; 3.88000
 731.67;    8.440;    0.890;    0.000; 7.55000
 731.82;    3.970;   -0.070;    0.000; 4.04000
 731.97;    5.000;   -2.150;    0.000; 7.15000
 732.12;   -1.810;   -4.410;    0.000; 2.60000
 732.27;    0.800;   -3.700;    0.000; 4.50000
 732.41;    6.670;    1.030;    0.000; 5.64000
 732.56;    6.190;    1.440;    0.000; 4.75000
 732.71;    9.770;   -0.780;    0.000;10.55000
 732.86;    6.970;   -1.450;    0.000; 8.42000
 733.00;    7.030;   -6.340;    0.000;13.37000
 733.15;    1.870;  -12.380;    0.000;14.25000
 733.30;    4.650;    0.840;    0.000; 3.81000
 733.45;   -3.750;   -5.540;    0.000; 1.79000
 733.59;    4.080;   -0.370;    0.000; 4.45000
 733.74;    5.970;   -2.640;    0.000; 8.61000
 733.89;    5.320;   -0.200;    0.000; 5.52000
 734.04;    4.290;    1.900;    0.000; 2.39000
 734.18;    3.790;   -0.030;    0.000; 3.82000
 734.33;    2.880;   -5.480;    0.000; 8.36000
 734.48;   -0.550;   -0.680;    0.000; 0.13000
 734.63;    3.310;    1.050;    0.000; 2.26000
 734.77;    4.680;   -7.480;    0.000;12.16000
 734.92;   -4.370;   -5.320;    0.000; 0.95000
 735.07;    9.290;   -1.400;    0.000;10.69000
 735.22;    1.090;    0.120;    0.000; 0.97000
 735.37;    2.500;    2.470;    0.000; 0.03000
 735.51;    5.560;    6.960;    0.000;-1.40000
 735.66;    7.680;   -3.190;    0.000;10.87000
 735.81;    4.790;   -2.280;    0.000; 7.07000
 735.96;    9.280;    1.630;    0.000; 7.65000
 736.10;    1.550;    1.550;    0.000; 0.00000
 736.25;    9.910;    1.790;    0.000; 8.12000
 736.40;    3.570;    1.810;    0.000; 1.76000
 736.54;   12.450;   -3.300;    0.000;15.75000
 736.69;   -2.170;   -6.750;    0.000; 4.58000
 736.84;   -5.620;    2.080;    0.000;-7.70000
 736.99;   -0.710;   -1.690;    0.000; 0.98000
 737.13;    1.660;   -0.990;    0.000; 2.65000
 737.28;   -4.820;   -2.560;    0.000;-2.26000
 737.43;    8.270;   -0.420;    0.000; 8.69000
 737.58;    0.310;   -1.510;    0.000; 1.82000
 737.72;    3.610;   -3.870;    0.000; 7.48000
 737.87;   -2.530;    0.110;    0.000;-2.64000
 738.02;    8.230;   -1.930;    0.000;10.16000
 738.17;    1.370;   -1.370;    0.000; 2.74000
 738.31;    1.510;   -1.740;    0.000; 3.25000
 738.46;    5.480;   -0.710;    0.000; 6.19000
 738.61;    5.760;    2.920;    0.000; 2.84000
 738.76;    3.160;    0.690;    0.000; 2.47000
 738.90;    2.240;    7.620;    0.000;-5.38000
 739.05;    1.240;   -4.540;    0.000; 5.78000
 739.20;   12.550;   -0.480;    0.000;13.03000
 739.34;    6.160;   -2.610;    0.000; 8.77000
 739.49;   -0.030;    3.060;    0.000;-3.09000
 739.64;   -2.560;   -2.010;    0.000;-0.55000
 739.79;    5.790;   -6.320;    0.000;12.11000
 739.93;    0.950;    5.150;    0.000;-4.20000
 740.08;    1.960;   -2.820;    0.000; 4.78000
 740.23;    2.410;    2.800;    0.000;-0.39000
 740.38;    8.900;    2.210;    0.000; 6.69000
 740.52;   -5.910;    1.530;    0.000;-7.44000
 740.67;    3.830;    0.320;    0.000; 3.51000
 740.82;    2.140;    5.230;    0.000;-3.09000
 740.96;   -0.680;  -10.280;    0.000; 9.60000
 741.11;    8.990;    1.120;    0.000; 7.87000
 741.26;   10.710;    2.430;    0.000; 8.28000
 741.41;   -4.990;   -1.430;    0.000;-3.56000
 741.55;    4.790;   -2.120;    0.000; 6.91000
 741.70;   -0.880;   -0.610;    0.000;-0.27000
 741.85;    5.500;   -1.300;    0.000; 6.80000
 741.99;    4.560;    2.120;    0.000; 2.44000
 742.14;    5.870;    4.200;    0.000; 1.67000
 742.29;   -2.250;    7.870;    0.000;-10.12000
 742.43;    4.120;    0.180;    0.000; 3.94000
 742.58;   -5.610;   -3.920;    0.000;-1.69000
 742.73;    6.500;    2.010;    0.000; 4.49000
 742.88;   -5.300;    4.020;    0.000;-9.32000
 743.02;    3.000;   -6.520;    0.000; 9.52000
 743.17;   -3.770;   -3.640;    0.000;-0.13000
 743.32;   -1.130;    1.580;    0.000;-2.71000
 743.46;    0.130;   -0.050;    0.000; 0.18000
 743.61;   -2.060;    1.630;    0.000;-3.69000
 743.76;   -5.480;   -1.080;    0.000;-4.40000
 743.90;    5.090;    5.990;    0.000;-0.90000
 744.05;   -5.770;   -6.130;    0.000; 0.36000
 744.20;    7.160;   -1.700;    0.000; 8.86000
 744.35;    2.690;    5.590;    0.000;-2.90000
 744.49;    3.120;   -0.410;    0.000; 3.53000
 744.64;   -2.560;   -2.000;    0.000;-0.56000
 744.79;   10.910;  -11.190;    0.000;22.10000
 744.93;   -3.760;    2.870;    0.000;-6.63000
 745.08;    6.020;   -5.800;    0.000;11.82000
 745.23;    0.420;   -4.010;    0.000; 4.43000
 745.37;    5.860;   -1.020;    0.000; 6.88000
 745.52;    5.180;   -1.200;    0.000; 6.38000
 745.67;    3.030;   -1.150;    0.000; 4.18000
 745.81;    3.750;    3.870;    0.000;-0.12000
 745.96;    2.600;    4.110;    0.000;-1.51000
 746.11;   -0.870;   -1.270;    0.000; 0.40000
 746.26;    8.140;   -0.590;    0.000; 8.73000
 746.40;   -2.320;    4.820;    0.000;-7.14000
 746.55;    5.700;    1.890;    0.000; 3.81000
 746.70;    4.520;    8.240;    0.000;-3.72000
 746.84;    0.600;   -1.000;    0.000; 1.60000
 746.99;    5.160;   -4.150;    0.000; 9.31000
 747.14;   -5.210;   -6.070;    0.000; 0.86000
 747.28;    3.660;    3.010;    0.000; 0.65000
 747.43;    6.290;   -0.550;    0.000; 6.84000
 747.58;    6.810;   -5.930;    0.000;12.74000
 747.72;    2.240;   -2.150;    0.000; 4.39000
 747.87;    1.330;   -0.490;    0.000; 1.82000
 748.02;    2.130;    3.810;    0.000;-1.68000
 748.16;    5.270;    5.970;    0.000;-0.70000
 748.31;    3.430;    0.990;    0.000; 2.44000
 748.46;    1.260;   -5.090;    0.000; 6.35000
 748.60;    1.910;   -1.400;    0.000; 3.31000
 748.75;    2.170;   -4.690;    0.000; 6.86000
 748.90;    3.960;   -0.090;    0.000; 4.05000
 749.04;    7.240;   -0.040;    0.000; 7.28000
 749.19;    6.210;   -3.120;    0.000; 9.33000
 749.34;    3.150;    1.430;    0.000; 1.72000
 749.48;    2.580;    3.870;    0.000;-1.29000
 749.63;    0.350;    3.060;    0.000;-2.71000
 749.78;   -2.300;    5.910;    0.000;-8.21000
 749.92;    6.170;   -3.160;    0.000; 9.33000
 750.07;    2.990;   -2.150;    0.000; 5.14000
 750.22;    5.090;    5.310;    0.000;-0.22000
 750.36;    2.880;   -0.200;    0.000; 3.08000
 750.51;    1.830;    3.300;    0.000;-1.47000
 750.65;    6.680;   -0.770;    0.000; 7.45000
 750.80;   -3.770;    0.770;    0.000;-4.54000
 750.95;    7.410;   -1.650;    0.000; 9.06000
 751.09;   -0.710;   -3.430;    0.000; 2.72000
 751.24;    1.690;   -3.870;    0.000; 5.56000
 751.39;    9.040;   -5.970;    0.000;15.01000
 751.53;    7.970;   -0.690;    0.000; 8.66000
 751.68;    5.080;    3.270;    0.000; 1.81000
 751.83;   -5.370;    4.880;    0.000;-10.25000
 751.97;   -1.650;    1.150;    0.000;-2.80000
 752.12;    5.950;   -3.290;    0.000; 9.24000
 752.27;    1.080;    0.890;    0.000; 0.19000
 752.41;    3.990;   -1.200;    0.000; 5.19000
 752.56;   -0.780;   -6.770;    0.000; 5.99000
 752.71;    0.070;   -5.600;    0.000; 5.67000
 752.85;    0.930;    4.810;    0.000;-3.88000
 753.00;    4.580;   -3.750;    0.000; 8.33000
 753.14;    0.900;   -0.860;    0.000; 1.76000
 753.29;    0.770;    0.220;    0.000; 0.55000
 753.44;   -7.840;   -0.990;    0.000;-6.85000
 753.58;   10.240;    2.650;    0.000; 7.59000
 753.73;    5.130;    2.360;    0.000; 2.77000
 753.88;    9.840;    2.130;    0.000; 7.71000
 754.02;   -0.320;   -3.500;    0.000; 3.18000
 754.17;    3.490;    3.560;    0.000;-0.07000
 754.31;   -2.100;    6.430;    0.000;-8.53000
 754.46;   10.290;   -1.670;    0.000;11.96000
 754.61;   -2.460;   -2.830;    0.000; 0.37000
 754.75;   -1.230;    0.210;    0.000;-1.44000
 754.90;    1.620;   -0.950;    0.000; 2.57000
 755.05;   -0.480;    1.180;    0.000;-1.66000
 755.19;    1.170;   -5.350;    0.000; 6.52000
 755.34;   -4.060;   -3.830;    0.000;-0.23000
 755.48;    4.400;   -0.700;    0.000; 5.10000
 755.63;    4.410;    1.860;    0.000; 2.55000
 755.78;    3.120;    8.410;    0.000;-5.29000
 755.92;    5.000;   -5.800;    0.000;10.80000
 756.07;   -3.050;    9.720;    0.000;-12.77000
 756.22;    1.970;   -2.410;    0.000; 4.38000
 756.36;   -0.480;   -4.470;    0.000; 3.99000
 756.51;    7.530;    2.460;    0.000; 5.07000
 756.65;    2.890;    0.470;    0.000; 2.42000
 756.80;    1.330;  -11.040;    0.000;12.37000
 756.95;   -0.150;   -1.850;    0.000; 1.70000
 757.09;    3.450;    1.230;    0.000; 2.22000
 757.24;    1.790;   -0.620;    0.000; 2.41000
 757.38;   -7.990;    0.150;    0.000;-8.14000
 757.53;   -1.250;    3.150;    0.000;-4.40000
 757.68;   -3.340;   -0.280;    0.000;-3.06000
 757.82;   -6.700;   -1.660;    0.000;-5.04000
 757.97;    7.060;    0.530;    0.000; 6.53000
 758.11;   -3.580;   -0.710;    0.000;-2.87000
 758.26;    5.450;    1.460;    0.000; 3.99000
 758.41;   -0.450;    3.170;    0.000;-3.62000
 758.55;    6.090;   -0.590;    0.000; 6.68000
 758.70;   -6.030;   -4.810;    0.000;-1.22000
 758.84;    0.330;   -2.380;    0.000; 2.71000
 758.99;    4.010;   -4.750;    0.000; 8.76000
 759.14;    3.550;    0.110;    0.000; 3.44000
 759.28;   -2.730;   -0.570;    0.000;-2.16000
 759.43;    1.520;   -1.830;    0.000; 3.35000
 759.57;    1.690;    0.200;    0.000; 1.49000
 759.72;    4.590;   -0.890;    0.000; 5.48000
 759.87;   -3.550;   -5.590;    0.000; 2.04000
 760.01;    5.120;   -4.680;    0.000; 9.80000
 760.16;    0.090;   -1.400;    0.000; 1.49000
 760.30;    1.850;    3.010;    0.000;-1.16000
 760.45;   -4.730;    1.650;    0.000;-6.38000
 760.60;   -0.950;   -0.370;    0.000;-0.58000
 760.74;    0.810;    2.030;    0.000;-1.22000
 760.89;    6.060;    4.150;    0.000; 1.91000
 761.03;    0.300;   -6.420;    0.000; 6.72000
 761.18;    1.700;   -2.370;    0.000; 4.07000
 761.32;    2.250;   -0.120;    0.000; 2.37000
 761.47;    3.340;   -6.830;    0.000;10.17000
 761.62;   -0.880;    1.510;    0.000;-2.39000
 761.76;    3.360;    1.550;    0.000; 1.81000
 761.91;   -1.610;   -7.060;    0.000; 5.45000
 762.05;    0.210;    4.500;    0.000;-4.29000
 762.20;   -0.810;   -0.750;    0.000;-0.06000
 762.35;    0.210;    4.310;    0.000;-4.10000
 762.49;  -11.270;   -9.780;    0.000;-1.49000
 762.64;   30.880;   21.390;    0.000; 9.49000
 762.78;   53.070;   58.920;    0.000;-5.85000
 762.93;    2.290;   -8.810;    0.000;11.10000
 763.07;   -5.240;   -6.570;    0.000; 1.33000
 763.22;    3.720;   -9.410;    0.000;13.13000
 763.37;    5.110;   -3.800;    0.000; 8.91000
 763.51;   14.090;   -1.750;    0.000;15.84000
 763.66;   18.020;   -1.980;    0.000;20.00000
 763.80;    8.770;   -0.940;    0.000; 9.71000
 763.95;   -0.450;   -8.930;    0.000; 8.48000
 764.09;    4.000;   -4.270;    0.000; 8.27000
 764.24;    2.320;   -7.600;    0.000; 9.92000
 764.38;    6.340;   -5.230;    0.000;11.57000
 764.53;    3.900;   -0.180;    0.000; 4.08000
 764.68;    5.950;   -0.540;    0.000; 6.49000
 764.82;    0.270;   -4.850;    0.000; 5.12000
 764.97;    1.660;   -2.600;    0.000; 4.26000
 765.11;    2.860;   -4.120;    0.000; 6.98000
 765.26;   -4.060;    3.560;    0.000;-7.62000
 765.40;   -2.040;    1.150;    0.000;-3.19000
 765.55;    7.970;   -2.580;    0.000;10.55000
 765.69;   -1.910;    0.970;    0.000;-2.88000
 765.84;    1.740;   -6.270;    0.000; 8.01000
 765.99;    9.650;   -1.940;    0.000;11.59000
 766.13;   -1.950;   -5.480;    0.000; 3.53000
 766.28;   -0.410;   -4.670;    0.000; 4.26000
 766.42;    0.460;   -3.780;    0.000; 4.24000
 766.57;    1.210;   -6.840;    0.000; 8.05000
 766.71;    7.140;   -7.650;    0.000;14.79000
 766.86;   -8.530;    4.820;    0.000;-13.35000
 767.00;    8.270;    1.630;    0.000; 6.64000
 767.15;    4.550;   -0.310;    0.000; 4.86000
 767.29;    2.610;   -1.800;    0.000; 4.41000
 767.44;   -3.100;   -0.970;    0.000;-2.13000
 767.59;    4.960;    4.050;    0.000; 0.91000
 767.73;    7.570;   -7.500;    0.000;15.07000
 767.88;   -0.960;   -2.730;    0.000; 1.77000
 768.02;    0.120;    3.130;    0.000;-3.01000
 768.17;    6.170;   -3.190;    0.000; 9.36000
 768.31;    2.660;    5.730;    0.000;-3.07000
 768.46;    9.060;   -3.280;    0.000;12.34000
 768.60;    5.630;   -5.920;    0.000;11.55000
 768.75;   -5.680;   -0.650;    0.000;-5.03000
 768.89;   -0.880;   -2.320;    0.000; 1.44000
 769.04;    3.710;   -0.830;    0.000; 4.54000
 769.18;    2.450;   -4.690;    0.000; 7.14000
 769.33;    1.270;   -4.920;    0.000; 6.19000
 769.47;    3.220;   -4.210;    0.000; 7.43000
 769.62;    4.160;   -5.970;    0.000;10.13000
 769.77;   -0.090;    3.130;    0.000;-3.22000
 769.91;    6.920;    3.370;    0.000; 3.55000
 770.06;    3.120;   -7.750;    0.000;10.87000
 770.20;   -0.510;    1.000;    0.000;-1.51000
 770.35;   -0.940;  -11.250;    0.000;10.31000
 770.49;    7.490;   -1.450;    0.000; 8.94000
 770.64;   -3.880;   -2.270;    0.000;-1.61000
 770.78;    1.920;    0.790;    0.000; 1.13000
 770.93;    3.050;    3.410;    0.000;-0.36000
 771.07;    6.830;   -5.890;    0.000;12.72000
 771.22;    2.810;    4.930;    0.000;-2.12000
 771.36;    1.910;   -3.640;    0.000; 5.55000
 771.51;    2.450;   -5.790;    0.000; 8.24000
 771.65;    1.290;   -3.180;    0.000; 4.47000
 771.80;    2.650;   -0.540;    0.000; 3.19000
 771.94;    1.630;    0.530;    0.000; 1.10000
 772.09;   -4.390;   -1.970;    0.000;-2.42000
 772.23;   -3.730;    5.520;    0.000;-9.25000
 772.38;    0.760;   -2.490;    0.000; 3.25000
 772.52;   10.440;   -3.010;    0.000;13.45000
 772.67;    7.040;   -3.230;    0.000;10.27000
 772.81;    0.500;   -1.530;    0.000; 2.03000
 772.96;    1.370;   -6.820;    0.000; 8.19000
 773.10;    1.010;   -6.890;    0.000; 7.90000
 773.25;   10.290;    1.510;    0.000; 8.78000
 773.39;    4.570;    4.000;    0.000; 0.57000
 773.54;   -1.570;   -5.130;    0.000; 3.56000
 773.68;    7.480;    3.530;    0.000; 3.95000
 773.83;   -5.260;  -13.420;    0.000; 8.16000
 773.97;    1.630;    2.470;    0.000;-0.84000
 774.12;    4.030;   -8.870;    0.000;12.90000
 774.26;    5.920;    4.290;    0.000; 1.63000
 774.41;    1.980;    0.510;    0.000; 1.47000
 774.55;   -1.150;    4.080;    0.000;-5.23000
 774.70;   -4.730;    4.110;    0.000;-8.84000
 774.84;    3.710;    9.720;    0.000;-6.01000
 774.99;   -4.010;   -1.770;    0.000;-2.24000
 775.13;    6.990;    2.390;    0.000; 4.60000
 775.28;   -0.770;   -2.100;    0.000; 1.33000
 775.42;   -5.090;   -2.910;    0.000;-2.18000
 775.57;    2.760;    1.370;    0.000; 1.39000
 775.71;   -3.000;   -1.810;    0.000;-1.19000
 775.86;   -3.200;   -3.720;    0.000; 0.52000
 776.00;    3.090;   -1.710;    0.000; 4.80000
 776.15;   -2.660;    0.720;    0.000;-3.38000
 776.29;   -1.300;    1.650;    0.000;-2.95000
 776.44;   -4.160;   -3.930;    0.000;-0.23000
 776.58;    2.390;   -2.110;    0.000; 4.50000
 776.73;   -2.470;    1.410;    0.000;-3.88000
 776.87;    2.820;   -2.230;    0.000; 5.05000
 777.02;    2.640;   -5.590;    0.000; 8.23000
 777.16;   -2.210;   -3.590;    0.000; 1.38000
 777.30;   -2.220;   -6.610;    0.000; 4.39000
 777.45;    1.950;    2.460;    0.000;-0.51000
 777.59;   -4.380;   -6.670;    0.000; 2.29000
 777.74;   -0.050;   -0.040;    0.000;-0.01000
 777.88;   -0.960;   -2.290;    0.000; 1.33000
 778.03;    9.220;   -6.280;    0.000;15.50000
 778.17;    2.370;    3.900;    0.000;-1.53000
 778.32;   -2.950;   -0.210;    0.000;-2.74000
 778.46;   -6.570;   -0.270;    0.000;-6.30000
 778.61;    6.370;    6.430;    0.000;-0.06000
 778.75;   -3.580;   -5.950;    0.000; 2.37000
 778.90;    1.980;    1.360;    0.000; 0.62000
 779.04;    4.380;   -1.780;    0.000; 6.16000
 779.19;    0.800;   -3.010;    0.000; 3.81000
 779.33;   -2.730;   -3.600;    0.000; 0.87000
 779.47;   -0.710;   -0.280;    0.000;-0.43000
 779.62;   -9.840;   -7.470;    0.000;-2.37000
 779.76;   -2.040;   -1.000;    0.000;-1.04000
 779.91;    7.540;   -2.210;    0.000; 9.75000
 780.05;    3.170;   -2.830;    0.000; 6.00000
 780.20;    4.540;    0.170;    0.000; 4.37000
 780.34;    1.410;   -3.750;    0.000; 5.16000
 780.49;   -2.510;   -0.430;    0.000;-2.08000
 780.63;    5.760;    1.440;    0.000; 4.32000
 780.78;   -3.640;    4.890;    0.000;-8.53000
 780.92;   -0.840;   -5.140;    0.000; 4.30000
 781.06;   -0.320;   -1.660;    0.000; 1.34000
 781.21;    2.330;    0.020;    0.000; 2.31000
 781.35;    0.510;   -1.210;    0.000; 1.72000
 781.50;   11.040;    6.010;    0.000; 5.03000
 781.64;    1.400;   -6.020;    0.000; 7.42000
 781.79;    5.210;   -5.000;    0.000;10.21000
 781.93;    0.280;    3.610;    0.000;-3.33000
 782.08;    6.260;   -2.100;    0.000; 8.36000
 782.22;    1.800;   -5.020;    0.000; 6.82000
 782.36;    2.170;   -5.630;    0.000; 7.80000
 782.51;    0.260;    3.570;    0.000;-3.31000
 782.65;    3.880;   -4.590;    0.000; 8.47000
 782.80;    1.430;    1.690;    0.000;-0.26000
 782.94;    7.920;   -4.950;    0.000;12.87000
 783.09;   -0.500;   -1.040;    0.000; 0.54000
 783.23;    8.120;    4.850;    0.000; 3.27000
 783.37;   -4.190;   -2.720;    0.000;-1.47000
 783.52;   -3.620;   -3.190;    0.000;-0.43000
 783.66;    2.310;   -4.190;    0.000; 6.50000
 783.81;    4.130;    3.540;    0.000; 0.59000
 783.95;    3.660;   -1.070;    0.000; 4.73000
 784.10;    3.020;   -2.300;    0.000; 5.32000
 784.24;   -0.570;    3.710;    0.000;-4.28000
 784.38;   -1.720;    3.880;    0.000;-5.60000
 784.53;   -0.040;   -1.060;    0.000; 1.02000
 784.67;   -1.490;   -0.500;    0.000;-0.99000
 784.82;    3.420;    3.790;    0.000;-0.37000
 784.96;    2.490;    2.920;    0.000;-0.43000
 785.11;    4.270;   -0.050;    0.000; 4.32000
 785.25;    3.030;   -0.250;    0.000; 3.28000
 785.39;    4.760;    0.110;    0.000; 4.65000
 785.54;    3.280;   -0.850;    0.000; 4.13000
 785.68;  -10.810;    2.780;    0.000;-13.59000
 785.83;    9.030;   -0.840;    0.000; 9.87000
 785.97;    4.790;   -1.150;    0.000; 5.94000
 786.11;   -1.270;    1.110;    0.000;-2.38000
 786.26;   -5.870;    3.420;    0.000;-9.29000
 786.40;   -0.660;   -2.430;    0.000; 1.77000
 786.55;   -0.320;   -0.640;    0.000; 0.32000
 786.69;    6.010;    4.120;    0.000; 1.89000
 786.83;    4.360;   -8.350;    0.000;12.71000
 786.98;   -2.410;    2.550;    0.000;-4.96000
 787.12;   -2.530;    2.310;    0.000;-4.84000
 787.27;   -0.640;   -1.860;    0.000; 1.22000
 787.41;    3.430;    1.860;    0.000; 1.57000
 787.55;    0.990;    0.600;    0.000; 0.39000
 787.70;   -6.190;   -0.570;    0.000;-5.62000
 787.84;    5.730;   -1.400;    0.000; 7.13000
 787.99;   -0.030;    1.320;    0.000;-1.35000
 788.13;   -1.680;   -0.010;    0.000;-1.67000
 788.27;    3.030;   -5.260;    0.000; 8.29000
 788.42;    0.660;   -1.630;    0.000; 2.29000
 788.56;    0.420;    1.500;    0.000;-1.08000
 788.71;    4.220;   -2.790;    0.000; 7.01000
 788.85;    9.290;    4.220;    0.000; 5.07000
 788.99;    1.600;   -2.920;    0.000; 4.52000
 789.14;    0.020;    4.250;    0.000;-4.23000
 789.28;    8.970;   -7.720;    0.000;16.69000
 789.43;   -6.890;    3.090;    0.000;-9.98000
 789.57;   -1.040;    2.310;    0.000;-3.35000
 789.71;   -1.000;   -4.120;    0.000; 3.12000
 789.86;    4.690;   -5.250;    0.000; 9.94000
 790.00;   -5.030;   -3.570;    0.000;-1.46000
 790.15;    0.260;   -9.900;    0.000;10.16000
 790.29;   -2.450;    1.400;    0.000;-3.85000
 790.43;    5.410;    1.680;    0.000; 3.73000
 790.58;    4.990;    0.080;    0.000; 4.91000
 790.72;    1.070;    7.240;    0.000;-6.17000
 790.86;    7.580;   -0.340;    0.000; 7.92000
 791.01;    8.290;    1.690;    0.000; 6.60000
 791.15;   -3.070;    1.170;    0.000;-4.24000
 791.30;    0.780;   -4.230;    0.000; 5.01000
 791.44;    3.890;   -3.690;    0.000; 7.58000
 791.58;    7.640;    2.100;    0.000; 5.54000
 791.73;    3.550;    5.300;    0.000;-1.75000
 791.87;    3.540;    0.680;    0.000; 2.86000
 792.01;   -1.520;   -2.520;    0.000; 1.00000
 792.16;    2.770;    5.870;    0.000;-3.10000
 792.30;   -1.590;   -5.590;    0.000; 4.00000
 792.45;    5.030;   -0.570;    0.000; 5.60000
 792.59;    3.080;    2.580;    0.000; 0.50000
 792.73;    4.570;   -1.890;    0.000; 6.46000
 792.88;   -5.020;   -5.810;    0.000; 0.79000
 793.02;    4.450;    1.190;    0.000; 3.26000
 793.16;   -4.960;    0.850;    0.000;-5.81000
 793.31;    2.330;    0.950;    0.000; 1.38000
 793.45;   -0.810;   -2.060;    0.000; 1.25000
 793.59;    2.790;    0.180;    0.000; 2.61000
 793.74;   -3.520;   -8.550;    0.000; 5.03000
 793.88;   -0.850;    4.430;    0.000;-5.28000
 794.03;   -0.160;   -6.630;    0.000; 6.47000
 794.17;    5.610;    2.860;    0.000; 2.75000
 794.31;   -0.170;   -6.740;    0.000; 6.57000
 794.46;    4.390;    1.040;    0.000; 3.35000
 794.60;    3.350;    0.270;    0.000; 3.08000
 794.74;   10.900;   -5.540;    0.000;16.44000
 794.89;   -0.280;   -4.040;    0.000; 3.76000
 795.03;    7.240;    2.960;    0.000; 4.28000
 795.17;    3.870;   -0.210;    0.000; 4.08000
 795.32;    2.110;   -7.660;    0.000; 9.77000
 795.46;    1.360;   -5.440;    0.000; 6.80000
 795.60;    6.220;    2.420;    0.000; 3.80000
 795.75;    0.960;    6.160;    0.000;-5.20000
 795.89;   -1.610;    0.290;    0.000;-1.90000
 796.03;   -2.140;    0.470;    0.000;-2.61000
 796.18;    3.460;    5.840;    0.000;-2.38000
 796.32;    1.320;   -4.710;    0.000; 6.03000
 796.46;   -4.260;   -2.670;    0.000;-1.59000
 796.61;    7.990;    1.920;    0.000; 6.07000
 796.75;    8.940;   -9.580;    0.000;18.52000
 796.89;    7.320;    2.390;    0.000; 4.93000
 797.04;    1.770;   -7.560;    0.000; 9.33000
 797.18;   -0.360;   -4.180;    0.000; 3.82000
 797.32;    5.600;   -3.420;    0.000; 9.02000
 797.47;    0.430;   -7.980;    0.000; 8.41000
 797.61;    1.800;    1.280;    0.000; 0.52000
 797.75;   -5.330;   -6.760;    0.000; 1.43000
 797.90;    4.760;    0.170;    0.000; 4.59000
 798.04;    7.160;   -1.470;    0.000; 8.63000
 798.18;    0.200;   -0.560;    0.000; 0.76000
 798.33;    0.520;   -2.640;    0.000; 3.16000
 798.47;    4.160;    5.370;    0.000;-1.21000
 798.61;    3.490;   -2.190;    0.000; 5.68000
 798.76;    8.060;   -0.880;    0.000; 8.94000
 798.90;    1.360;   -3.870;    0.000; 5.23000
 799.04;    4.520;    1.220;    0.000; 3.30000
 799.19;   -0.290;   -3.820;    0.000; 3.53000
 799.33;    0.970;   -2.530;    0.000; 3.50000
 799.47;    3.820;    0.130;    0.000; 3.69000
 799.62;   -0.270;   -8.790;    0.000; 8.52000
 799.76;   -4.480;    4.390;    0.000;-8.87000
 799.90;    9.270;    3.840;    0.000; 5.43000
 800.05;    1.270;   -3.390;    0.000; 4.66000
 800.19;    1.470;    2.890;    0.000;-1.42000
 800.33;   -0.210;   -1.370;    0.000; 1.16000
 800.48;    2.630;   -0.320;    0.000; 2.95000
 800.62;   -5.370;  -11.770;    0.000; 6.40000
 800.76;    8.430;    2.310;    0.000; 6.12000
 800.91;   -4.100;   -0.190;    0.000;-3.91000
 801.05;    5.980;   -6.100;    0.000;12.08000
 801.19;   -0.730;   -6.340;    0.000; 5.61000
 801.33;    0.480;    3.750;    0.000;-3.27000
 801.48;    0.770;   -1.860;    0.000; 2.63000
 801.62;    3.650;   -3.510;    0.000; 7.16000
 801.76;    3.960;    4.540;    0.000;-0.58000
 801.91;    5.590;    1.450;    0.000; 4.14000
 802.05;    0.870;   -2.470;    0.000; 3.34000
 802.19;    0.020;    0.120;    0.000;-0.10000
 802.34;    4.520;  -10.190;    0.000;14.71000
 802.48;    9.220;    1.770;    0.000; 7.45000
 802.62;    1.770;   -4.580;    0.000; 6.35000
 802.76;    4.150;   -2.060;    0.000; 6.21000
 802.91;    2.520;   -7.890;    0.000;10.41000
 803.05;   -0.900;   -1.840;    0.000; 0.94000
 803.19;   -0.650;   -0.350;    0.000;-0.30000
 803.34;    5.000;    3.430;    0.000; 1.57000
 803.48;   -3.770;   -6.360;    0.000; 2.59000
 803.62;    7.670;   -0.020;    0.000; 7.69000
 803.76;    4.590;   -1.450;    0.000; 6.04000
 803.91;    0.730;    2.590;    0.000;-1.86000
 804.05;    2.480;    3.320;    0.000;-0.84000
 804.19;    0.120;    1.520;    0.000;-1.40000
 804.34;    2.710;    1.200;    0.000; 1.51000
 804.48;   -3.550;    0.710;    0.000;-4.26000
 804.62;   -2.140;   -1.710;    0.000;-0.43000
 804.76;    3.830;   -2.220;    0.000; 6.05000
 804.91;   -4.750;   -4.280;    0.000;-0.47000
 805.05;   -2.650;    0.220;    0.000;-2.87000
 805.19;   -0.730;   -3.950;    0.000; 3.22000
 805.34;    1.470;    3.010;    0.000;-1.54000
 805.48;    6.900;    1.590;    0.000; 5.31000
 805.62;    6.320;   -2.210;    0.000; 8.53000
 805.76;    6.060;    3.130;    0.000; 2.93000
 805.91;    5.360;   -7.480;    0.000;12.84000
 806.05;   -3.990;   -2.810;    0.000;-1.18000
 806.19;    3.780;   -1.870;    0.000; 5.65000
 806.33;   -5.770;    3.720;    0.000;-9.49000
 806.48;    9.290;   -1.630;    0.000;10.92000
 806.62;   -6.420;   -0.990;    0.000;-5.43000
 806.76;    3.130;    0.780;    0.000; 2.35000
 806.91;    4.020;   -2.450;    0.000; 6.47000
 807.05;    2.570;   -4.880;    0.000; 7.45000
 807.19;   -1.500;    2.530;    0.000;-4.03000
 807.33;    4.200;    0.280;    0.000; 3.92000
 807.48;    3.250;   -3.440;    0.000; 6.69000
 807.62;   12.320;    2.740;    0.000; 9.58000
 807.76;   -3.630;   -1.440;    0.000;-2.19000
 807.90;    5.910;   -9.290;    0.000;15.20000
 808.05;    2.070;   -1.460;    0.000; 3.53000
 808.19;    9.700;   -3.300;    0.000;13.00000
 808.33;   -1.630;    6.040;    0.000;-7.67000
 808.47;    3.570;   -4.460;    0.000; 8.03000
 808.62;   -2.480;    2.220;    0.000;-4.70000
 808.76;    7.560;   -4.950;    0.000;12.51000
 808.90;    0.620;   -5.530;    0.000; 6.15000
 809.04;    2.270;    2.100;    0.000; 0.17000
 809.19;   10.540;   -7.150;    0.000;17.69000
 809.33;   66.690;   -0.450;    0.000;67.14000
 809.47;   53.060;    2.290;    0.000;50.77000
 809.61;   10.690;    0.230;    0.000;10.46000
 809.76;    6.350;   -1.750;    0.000; 8.10000
 809.90;   -0.150;   -1.710;    0.000; 1.56000
 810.04;    6.240;   -4.250;    0.000;10.49000
 810.18;    3.860;    0.100;    0.000; 3.76000
 810.33;    2.840;   -7.540;    0.000;10.38000
 810.47;    6.670;   -3.720;    0.000;10.39000
 810.61;    6.410;   -4.890;    0.000;11.30000
 810.75;    2.930;   -3.080;    0.000; 6.01000
 810.90;   -6.440;    4.290;    0.000;-10.73000
 811.04;    9.810;    1.480;    0.000; 8.33000
 811.18;   -3.560;   -5.870;    0.000; 2.31000
 811.32;    1.560;   -6.490;    0.000; 8.05000
 811.46;    7.330;   -2.900;    0.000;10.23000
 811.61;   19.350;   -2.250;    0.000;21.60000
 811.75;   14.430;   -5.950;    0.000;20.38000
 811.89;    0.380;   -2.720;    0.000; 3.10000
 812.03;    2.780;   -0.880;    0.000; 3.66000
 812.18;   -7.380;   -2.390;    0.000;-4.99000
 812.32;    0.170;   -0.870;    0.000; 1.04000
 812.46;    0.220;   -0.130;    0.000; 0.35000
 812.60;   -1.200;   -5.220;    0.000; 4.02000
 812.75;    1.360;   -8.870;    0.000;10.23000
 812.89;   -2.450;  -11.070;    0.000; 8.62000
 813.03;    3.920;   -5.010;    0.000; 8.93000
 813.17;  -11.200;    3.230;    0.000;-14.43000
 813.31;    7.060;   -9.160;    0.000;16.22000
 813.46;   -5.680;   -2.160;    0.000;-3.52000
 813.60;    5.080;   -0.020;    0.000; 5.10000
 813.74;    2.380;   -3.800;    0.000; 6.18000
 813.88;   -4.640;   -5.550;    0.000; 0.91000
 814.03;   -2.120;   -2.020;    0.000;-0.10000
 814.17;    1.250;   -5.340;    0.000; 6.59000
 814.31;   -1.620;    1.400;    0.000;-3.02000
 814.45;    2.670;   -6.750;    0.000; 9.42000
 814.59;    6.590;   -1.910;    0.000; 8.50000
 814.74;    4.240;    1.790;    0.000; 2.45000
 814.88;    0.820;    1.150;    0.000;-0.33000
 815.02;    2.260;    1.390;    0.000; 0.87000
 815.16;   -1.580;    0.840;    0.000;-2.42000
 815.30;    1.760;   -7.730;    0.000; 9.49000
 815.45;   -1.880;   -5.540;    0.000; 3.66000
 815.59;   16.250;   -4.320;    0.000;20.57000
 815.73;   12.730;   -3.860;    0.000;16.59000
 815.87;    6.020;   -3.850;    0.000; 9.87000
 816.01;   -5.260;    0.230;    0.000;-5.49000
 816.16;    8.390;   10.860;    0.000;-2.47000
 816.30;   -2.390;    5.530;    0.000;-7.92000
 816.44;    0.940;   -3.620;    0.000; 4.56000
 816.58;    4.110;    3.200;    0.000; 0.91000
 816.72;    5.270;   -2.460;    0.000; 7.73000
 816.87;   -2.650;  -10.350;    0.000; 7.70000
 817.01;    3.590;   -6.180;    0.000; 9.77000
 817.15;    6.870;   -1.650;    0.000; 8.52000
 817.29;    2.600;    2.170;    0.000; 0.43000
 817.43;   -1.650;    0.700;    0.000;-2.35000
 817.58;    0.880;   -1.920;    0.000; 2.80000
 817.72;    1.930;    0.900;    0.000; 1.03000
 817.86;    0.150;    3.340;    0.000;-3.19000
 818.00;   -2.060;   -0.490;    0.000;-1.57000
 818.14;    3.860;    4.210;    0.000;-0.35000
 818.28;   -1.570;   -1.220;    0.000;-0.35000
 818.43;    9.630;    3.990;    0.000; 5.64000
 818.57;    1.510;   -3.260;    0.000; 4.77000
 818.71;    3.460;    5.450;    0.000;-1.99000
 818.85;    0.920;   -6.340;    0.000; 7.26000
 818.99;    2.130;   -1.880;    0.000; 4.01000
 819.14;    3.800;   -6.300;    0.000;10.10000
 819.28;    3.630;    1.190;    0.000; 2.44000
 819.42;   -0.800;   -0.470;    0.000;-0.33000
 819.56;    6.110;   -1.640;    0.000; 7.75000
 819.70;    2.310;   -0.770;    0.000; 3.08000
 819.84;    4.490;   -9.340;    0.000;13.83000
 819.99;   -2.100;   -0.040;    0.000;-2.06000
 820.13;   -2.890;   -5.010;    0.000; 2.12000
 820.27;    3.630;    1.120;    0.000; 2.51000
 820.41;    0.420;    0.290;    0.000; 0.13000
 820.55;    0.350;   -1.290;    0.000; 1.64000
 820.69;   -3.200;    0.300;    0.000;-3.50000
 820.84;   -0.600;    0.320;    0.000;-0.92000
 820.98;   -3.290;    6.510;    0.000;-9.80000
 821.12;    2.850;    0.220;    0.000; 2.63000
 821.26;   11.720;   -0.260;    0.000;11.98000
 821.40;   -3.710;    3.990;    0.000;-7.70000
 821.54;    4.440;   -4.470;    0.000; 8.91000
 821.69;   -3.280;   -5.060;    0.000; 1.78000
 821.83;   -2.940;   -1.480;    0.000;-1.46000
 821.97;   -6.320;   -2.500;    0.000;-3.82000
 822.11;    4.230;    0.890;    0.000; 3.34000
 822.25;    3.470;    9.080;    0.000;-5.61000
 822.39;    4.460;   -0.160;    0.000; 4.62000
 822.53;    1.000;   -2.960;    0.000; 3.96000
 822.68;   -1.740;   -0.310;    0.000;-1.43000
 822.82;    3.570;    0.330;    0.000; 3.24000
 822.96;    2.920;   -6.940;    0.000; 9.86000
 823.10;   -1.440;   -0.710;    0.000;-0.73000
 823.24;    1.030;   -3.270;    0.000; 4.30000
 823.38;   -2.610;   -1.610;    0.000;-1.00000
 823.53;    1.770;   -0.680;    0.000; 2.45000
 823.67;    3.310;    1.610;    0.000; 1.70000
 823.81;    3.940;   -3.690;    0.000; 7.63000
 823.95;    2.550;   -8.040;    0.000;10.59000
 824.09;    0.570;   -0.470;    0.000; 1.04000
 824.23;    1.760;   -8.050;    0.000; 9.81000
 824.37;    5.910;    1.250;    0.000; 4.66000
 824.52;   -1.570;   -2.310;    0.000; 0.74000
 824.66;   -5.120;    4.700;    0.000;-9.82000
 824.80;   -5.970;   -1.770;    0.000;-4.20000
 824.94;   -0.040;    1.100;    0.000;-1.14000
 825.08;   -0.810;   -2.320;    0.000; 1.51000
 825.22;    0.420;   -1.160;    0.000; 1.58000
 825.36;    5.280;    5.010;    0.000; 0.27000
 825.50;   -4.230;    0.730;    0.000;-4.96000
 825.65;    3.120;   -3.480;    0.000; 6.60000
 825.79;    2.880;    0.700;    0.000; 2.18000
 825.93;   -1.160;   -3.800;    0.000; 2.64000
 826.07;   -3.510;   -3.410;    0.000;-0.10000
 826.21;    1.770;   -0.010;    0.000; 1.78000
 826.35;    5.610;    4.250;    0.000; 1.36000
 826.49;    4.520;   -2.380;    0.000; 6.90000
 826.63;    0.900;    0.080;    0.000; 0.82000
 826.78;    0.050;    0.690;    0.000;-0.64000
 826.92;    4.800;   -3.630;    0.000; 8.43000
 827.06;   -3.210;   -2.730;    0.000;-0.48000
 827.20;    7.490;   -0.670;    0.000; 8.16000
 827.34;    4.170;    0.550;    0.000; 3.62000
 827.48;    2.470;   -7.860;    0.000;10.33000
 827.62;   -4.130;   -0.290;    0.000;-3.84000
 827.76;    6.130;    0.500;    0.000; 5.63000
 827.90;   -0.110;   -3.910;    0.000; 3.80000
 828.05;    0.900;    7.140;    0.000;-6.24000
 828.19;   -2.460;   -1.050;    0.000;-1.41000
 828.33;   -3.500;   -4.340;    0.000; 0.84000
 828.47;   -1.430;   -0.600;    0.000;-0.83000
 828.61;    1.410;    0.280;    0.000; 1.13000
 828.75;   -4.630;    2.150;    0.000;-6.78000
 828.89;    5.250;    2.340;    0.000; 2.91000
 829.03;    6.160;    4.260;    0.000; 1.90000
 829.17;   10.620;   -2.080;    0.000;12.70000
 829.32;    0.080;   -1.000;    0.000; 1.08000
 829.46;    1.740;    3.680;    0.000;-1.94000
 829.60;    1.600;    1.300;    0.000; 0.30000
 829.74;    3.080;   -1.560;    0.000; 4.64000
 829.88;   -1.230;   -4.370;    0.000; 3.14000
 830.02;   -2.490;    2.020;    0.000;-4.51000
 830.16;   -4.220;    1.360;    0.000;-5.58000
 830.30;    6.690;   -2.510;    0.000; 9.20000
 830.44;  -12.460;    5.070;    0.000;-17.53000
 830.58;    4.210;   -0.140;    0.000; 4.35000
 830.73;   -3.270;    2.650;    0.000;-5.92000
 830.87;   -0.770;    0.840;    0.000;-1.61000
 831.01;   -3.930;    3.820;    0.000;-7.75000
 831.15;    2.160;   -3.560;    0.000; 5.72000
 831.29;   -2.800;   -8.300;    0.000; 5.50000
 831.43;    0.040;   -4.300;    0.000; 4.34000
 831.57;   -2.300;   -2.690;    0.000; 0.39000
 831.71;    3.680;  -10.440;    0.000;14.12000
 831.85;    2.480;    0.440;    0.000; 2.04000
 831.99;    0.550;    0.370;    0.000; 0.18000
 832.13;   -1.540;   -8.390;    0.000; 6.85000
 832.27;    1.300;   -6.120;    0.000; 7.42000
 832.42;   -3.380;   -7.870;    0.000; 4.49000
 832.56;   -4.430;   -1.970;    0.000;-2.46000
 832.70;    5.670;    5.950;    0.000;-0.28000
 832.84;    0.630;   -2.970;    0.000; 3.60000
 832.98;    3.520;   -0.220;    0.000; 3.74000
 833.12;    3.520;   -4.010;    0.000; 7.53000
 833.26;    0.130;    5.810;    0.000;-5.68000
 833.40;    0.790;    2.110;    0.000;-1.32000
 833.54;    4.780;   -2.980;    0.000; 7.76000
 833.68;   -4.480;    3.430;    0.000;-7.91000
 833.82;  -13.390;   -7.390;    0.000;-6.00000
 833.96;   -2.600;   -2.420;    0.000;-0.18000
 834.10;    2.170;   -5.270;    0.000; 7.44000
 834.24;    4.700;   -0.120;    0.000; 4.82000
 834.39;    1.440;   -4.570;    0.000; 6.01000
 834.53;    2.840;    1.630;    0.000; 1.21000
 834.67;   -5.510;    7.860;    0.000;-13.37000
 834.81;   10.270;    0.010;    0.000;10.26000
 834.95;    3.490;    4.310;    0.000;-0.82000
 835.09;   -2.800;    2.250;    0.000;-5.05000
 835.23;   -6.110;   -6.980;    0.000; 0.87000
 835.37;    1.870;   -1.430;    0.000; 3.30000
 835.51;    1.960;    0.930;    0.000; 1.03000
 835.65;    3.280;    0.290;    0.000; 2.99000
 835.79;    4.100;  -10.520;    0.000;14.62000
 835.93;    5.380;    3.310;    0.000; 2.07000
 836.07;   -4.540;   -0.540;    0.000;-4.00000
 836.21;    5.720;    0.210;    0.000; 5.51000
 836.35;    6.730;    0.450;    0.000; 6.28000
 836.49;    2.140;    4.120;    0.000;-1.98000
 836.63;    2.210;    4.380;    0.000;-2.17000
 836.77;    2.740;    0.910;    0.000; 1.83000
 836.92;   -0.390;   -6.490;    0.000; 6.10000
 837.06;   14.570;   -3.950;    0.000;18.52000
 837.20;   -1.400;   -1.230;    0.000;-0.17000
 837.34;   -3.440;    1.660;    0.000;-5.10000
 837.48;    1.350;   -4.140;    0.000; 5.49000
 837.62;    8.700;    0.590;    0.000; 8.11000
 837.76;    4.260;   -1.650;    0.000; 5.91000
 837.90;   -4.100;    0.450;    0.000;-4.55000
 838.04;    0.320;   -7.670;    0.000; 7.99000
 838.18;    6.480;    3.920;    0.000; 2.56000
 838.32;    7.370;    1.140;    0.000; 6.23000
 838.46;    2.490;   -0.450;    0.000; 2.94000
 838.60;    6.010;   -1.390;    0.000; 7.40000
 838.74;   -0.340;   -9.260;    0.000; 8.92000
 838.88;   -0.600;   -2.060;    0.000; 1.46000
 839.02;    1.350;   -0.790;    0.000; 2.14000
 839.16;    6.710;   -5.100;    0.000;11.81000
 839.30;    7.670;    3.400;    0.000; 4.27000
 839.44;    1.560;   -6.790;    0.000; 8.35000
 839.58;    7.970;    5.410;    0.000; 2.56000
 839.72;   -1.340;    0.240;    0.000;-1.58000
 839.86;    1.240;   -0.890;    0.000; 2.13000
 840.00;    0.400;    0.360;    0.000; 0.04000
 840.14;   -2.810;    2.800;    0.000;-5.61000
 840.28;   -7.390;  -18.010;    0.000;10.62000
 840.42;    0.820;   -0.340;    0.000; 1.16000
 840.56;   -3.090;    3.120;    0.000;-6.21000
 840.70;    1.010;    0.630;    0.000; 0.38000
 840.84;    4.570;   -4.600;    0.000; 9.17000
 840.98;   11.020;    2.300;    0.000; 8.72000
 841.12;    1.070;   -4.390;    0.000; 5.46000
 841.26;    0.510;    3.240;    0.000;-2.73000
 841.40;    8.640;    4.160;    0.000; 4.48000
 841.54;    3.600;   -2.710;    0.000; 6.31000
 841.68;   -8.820;   -4.300;    0.000;-4.52000
 841.82;    5.520;   -6.350;    0.000;11.87000
 841.96;    6.120;    0.380;    0.000; 5.74000
 842.10;    4.330;   11.990;    0.000;-7.66000
 842.24;   -4.140;    1.130;    0.000;-5.27000
 842.38;   -0.780;   -2.910;    0.000; 2.13000
 842.52;    6.500;   -4.390;    0.000;10.89000
 842.66;    9.590;   -1.220;    0.000;10.81000
 842.80;    4.000;   -5.910;    0.000; 9.91000
 842.94;    4.030;    1.790;    0.000; 2.24000
 843.08;    2.360;   -7.860;    0.000;10.22000
 843.22;   -2.580;   -5.330;    0.000; 2.75000
 843.36;    0.960;  -11.350;    0.000;12.31000
 843.50;    4.050;    6.110;    0.000;-2.06000
 843.64;   -5.510;   -7.850;    0.000; 2.34000
 843.78;    5.250;    4.890;    0.000; 0.36000
 843.92;    7.900;    4.690;    0.000; 3.21000
 844.06;    7.640;   -4.190;    0.000;11.83000
 844.20;    3.030;    0.070;    0.000; 2.96000
 844.34;    1.790;    0.530;    0.000; 1.26000
 844.48;   -0.890;   -6.350;    0.000; 5.46000
 844.62;    5.520;    1.470;    0.000; 4.05000
 844.76;   -0.800;   -3.070;    0.000; 2.27000
 844.90;    2.910;  -11.480;    0.000;14.39000
 845.04;   -2.990;   -0.680;    0.000;-2.31000
 845.18;    3.860;    0.020;    0.000; 3.84000
 845.32;    2.890;   -3.370;    0.000; 6.26000
 845.46;    5.490;    0.580;    0.000; 4.91000
 845.60;   -4.320;   -7.710;    0.000; 3.39000
 845.74;    8.020;   -1.920;    0.000; 9.94000
 845.88;    0.830;   -1.190;    0.000; 2.02000
 846.02;    3.420;   -1.010;    0.000; 4.43000
 846.16;   -7.440;   -6.370;    0.000;-1.07000
 846.30;    5.330;   -9.990;    0.000;15.32000
 846.44;   -0.760;    1.890;    0.000;-2.65000
 846.58;    1.980;   -1.600;    0.000; 3.58000
 846.72;    5.900;    0.630;    0.000; 5.27000
 846.86;    2.960;   -0.250;    0.000; 3.21000
 847.00;   -0.240;   -4.090;    0.000; 3.85000
 847.14;    1.480;    0.110;    0.000; 1.37000
 847.28;    1.890;    0.250;    0.000; 1.64000
 847.42;    4.600;    2.370;    0.000; 2.23000
 847.56;    9.340;    1.110;    0.000; 8.23000
 847.70;    2.460;  -11.290;    0.000;13.75000
 847.84;   -1.180;    1.890;    0.000;-3.07000
 847.98;    2.030;    0.080;    0.000; 1.95000
 848.12;    2.660;    1.120;    0.000; 1.54000
 848.26;    3.950;    0.320;    0.000; 3.63000
 848.40;    2.950;    6.980;    0.000;-4.03000
 848.54;   -0.370;   -4.870;    0.000; 4.50000
 848.68;   -5.830;   -3.380;    0.000;-2.45000
 848.82;    8.680;    3.560;    0.000; 5.12000
 848.95;   -1.950;   -3.300;    0.000; 1.35000
 849.09;    6.890;   -3.550;    0.000;10.44000
 849.23;   -3.210;    0.260;    0.000;-3.47000
 849.37;    0.950;    8.670;    0.000;-7.72000
 849.51;    1.150;    0.350;    0.000; 0.80000
 849.65;    6.750;    2.780;    0.000; 3.97000
 849.79;   -7.080;   -3.930;    0.000;-3.15000
 849.93;    0.270;    0.190;    0.000; 0.08000
 850.07;   -5.370;   -4.980;    0.000;-0.39000
 850.21;   -3.190;   -6.670;    0.000; 3.48000
 850.35;    1.740;    0.070;    0.000; 1.67000
 850.49;   -5.730;    2.130;    0.000;-7.86000
 850.63;   13.230;   -1.170;    0.000;14.40000
 850.77;    1.260;   -1.030;    0.000; 2.29000
 850.91;    4.550;   -6.990;    0.000;11.54000
 851.05;    0.340;   -3.180;    0.000; 3.52000
 851.19;   -7.010;   -5.300;    0.000;-1.71000
 851.33;    0.380;   -0.540;    0.000; 0.92000
 851.46;   -7.230;   -4.510;    0.000;-2.72000
 851.60;   -4.800;   -7.060;    0.000; 2.26000
 851.74;    3.050;    2.010;    0.000; 1.04000
 851.88;   -0.580;    1.870;    0.000;-2.45000
 852.02;   -1.470;   -4.700;    0.000; 3.23000
 852.16;    1.230;   -2.420;    0.000; 3.65000
 852.30;   -0.840;   -5.850;    0.000; 5.01000
 852.44;    5.890;   -5.640;    0.000;11.53000
 852.58;   -8.950;   -6.810;    0.000;-2.14000
 852.72;   -3.990;    4.070;    0.000;-8.06000
 852.86;    2.880;    5.430;    0.000;-2.55000
 853.00;    2.810;    2.410;    0.000; 0.40000
 853.14;   -0.230;   -0.930;    0.000; 0.70000
 853.28;   10.420;    0.630;    0.000; 9.79000
 853.41;    2.040;   -9.810;    0.000;11.85000
 853.55;    5.330;   -3.700;    0.000; 9.03000
 853.69;   -7.270;   -3.930;    0.000;-3.34000
 853.83;    8.270;   -1.310;    0.000; 9.58000
 853.97;   -1.350;   -1.330;    0.000;-0.02000
 854.11;   -8.460;    2.780;    0.000;-11.24000
 854.25;    4.180;   -2.800;    0.000; 6.98000
 854.39;   -1.720;    5.100;    0.000;-6.82000
 854.53;    2.560;   -0.220;    0.000; 2.78000
 854.67;    1.920;   -1.710;    0.000; 3.63000
 854.81;    8.600;   -0.860;    0.000; 9.46000
 854.95;    7.380;   -9.550;    0.000;16.93000
 855.08;    7.820;   -0.170;    0.000; 7.99000
 855.22;    4.790;   -4.220;    0.000; 9.01000
 855.36;    1.870;   -2.670;    0.000; 4.54000
 855.50;    4.570;    0.150;    0.000; 4.42000
 855.64;   -4.930;    1.540;    0.000;-6.47000
 855.78;    9.800;    2.610;    0.000; 7.19000
 855.92;    2.820;    1.740;    0.000; 1.08000
 856.06;    5.910;   -4.890;    0.000;10.80000
 856.20;   -2.550;   -5.470;    0.000; 2.92000
 856.34;   -2.770;   -1.970;    0.000;-0.80000
 856.47;   -3.020;   -4.730;    0.000; 1.71000
 856.61;    3.410;   -7.840;    0.000;11.25000
 856.75;   -1.880;    3.770;    0.000;-5.65000
 856.89;    0.860;    0.490;    0.000; 0.37000
 857.03;   -1.310;   -4.600;    0.000; 3.29000
 857.17;    5.500;   -2.540;    0.000; 8.04000
 857.31;   -2.340;   -1.140;    0.000;-1.20000
 857.45;    7.280;   -1.680;    0.000; 8.96000
 857.59;   -3.490;   -7.970;    0.000; 4.48000
 857.72;    2.570;   -5.980;    0.000; 8.55000
 857.86;   -1.310;   -8.150;    0.000; 6.84000
 858.00;   10.210;    0.460;    0.000; 9.75000
 858.14;   -3.470;   -1.830;    0.000;-1.64000
 858.28;    0.260;   -1.970;    0.000; 2.23000
 858.42;   -0.060;    5.010;    0.000;-5.07000
 858.56;   -1.220;    1.710;    0.000;-2.93000
 858.70;   -1.490;   -1.390;    0.000;-0.10000
 858.84;    5.880;    2.670;    0.000; 3.21000
 858.97;   -6.600;   -0.380;    0.000;-6.22000
 859.11;    3.890;    1.360;    0.000; 2.53000
 859.25;   -2.820;   -4.590;    0.000; 1.77000
 859.39;    9.560;   -5.900;    0.000;15.46000
 859.53;   -6.720;   -3.870;    0.000;-2.85000
 859.67;    0.210;   -3.460;    0.000; 3.67000
 859.81;   -5.980;   -3.270;    0.000;-2.71000
 859.94;   -3.370;    3.610;    0.000;-6.98000
 860.08;    0.470;    0.350;    0.000; 0.12000

