
Integration time [ms]: 3000,000
Averaging Nr. [scans]: 1
Smoothing Nr. [pixels]: 0
Data measured with spectrometer [name]: 1804343U2
Wave   ;Sample   ;Dark     ;Reference;Scope Corrected for Dark
[nm]   ;[counts] ;[counts] ;[counts] 

 318,01;  -46,000;    0,000;    0,000;-46,00000
 318,02; -228,000;    0,000;    0,000;-228,00000
 318,04;  617,000;    0,000;    0,000;617,00000
 318,06;   68,000;    0,000;    0,000;68,00000
 318,08; -358,000;    0,000;    0,000;-358,00000
 318,10; -240,000;    0,000;    0,000;-240,00000
 318,12;  368,000;    0,000;    0,000;368,00000
 318,14;   32,000;    0,000;    0,000;32,00000
 318,16; -326,000;    0,000;    0,000;-326,00000
 318,18; -302,000;    0,000;    0,000;-302,00000
 318,20; 1964,000;    0,000;    0,000;1964,00000
 318,22;  309,000;    0,000;    0,000;309,00000
 318,24;  418,000;    0,000;    0,000;418,00000
 318,26; -512,000;    0,000;    0,000;-512,00000
 318,27;  817,000;    0,000;    0,000;817,00000
 318,29;  503,000;    0,000;    0,000;503,00000
 318,31;   41,000;    0,000;    0,000;41,00000
 318,33; -372,000;    0,000;    0,000;-372,00000
 318,35;  736,000;    0,000;    0,000;736,00000
 318,37;  324,000;    0,000;    0,000;324,00000
 318,39;    8,000;    0,000;    0,000; 8,00000
 318,41; -258,000;    0,000;    0,000;-258,00000
 318,43;  810,000;    0,000;    0,000;810,00000
 318,45;   45,000;    0,000;    0,000;45,00000
 318,47; -360,000;    0,000;    0,000;-360,00000
 318,49; -843,000;    0,000;    0,000;-843,00000
 318,50;  439,000;    0,000;    0,000;439,00000
 318,52;  -78,000;    0,000;    0,000;-78,00000
 318,54; -259,000;    0,000;    0,000;-259,00000
 318,56; -455,000;    0,000;    0,000;-455,00000
 318,58;  367,000;    0,000;    0,000;367,00000
 318,60;  333,000;    0,000;    0,000;333,00000
 318,62;  -91,000;    0,000;    0,000;-91,00000
 318,64; -692,000;    0,000;    0,000;-692,00000
 318,66;  581,000;    0,000;    0,000;581,00000
 318,68;  147,000;    0,000;    0,000;147,00000
 318,70;  125,000;    0,000;    0,000;125,00000
 318,72; -474,000;    0,000;    0,000;-474,00000
 318,73;  144,000;    0,000;    0,000;144,00000
 318,75;  618,000;    0,000;    0,000;618,00000
 318,77;  258,000;    0,000;    0,000;258,00000
 318,79; -386,000;    0,000;    0,000;-386,00000
 318,81;  841,000;    0,000;    0,000;841,00000
 318,83;  549,000;    0,000;    0,000;549,00000
 318,85;   27,000;    0,000;    0,000;27,00000
 318,87; -638,000;    0,000;    0,000;-638,00000
 318,89;  451,000;    0,000;    0,000;451,00000
 318,91;  676,000;    0,000;    0,000;676,00000
 318,93;  -21,000;    0,000;    0,000;-21,00000
 318,94; -679,000;    0,000;    0,000;-679,00000
 318,96;  449,000;    0,000;    0,000;449,00000
 318,98;  565,000;    0,000;    0,000;565,00000
 319,00;  284,000;    0,000;    0,000;284,00000
 319,02; -461,000;    0,000;    0,000;-461,00000
 319,04;  877,000;    0,000;    0,000;877,00000
 319,06;  704,000;    0,000;    0,000;704,00000
 319,08;  181,000;    0,000;    0,000;181,00000
 319,10; 1193,000;    0,000;    0,000;1193,00000
 319,12;  612,000;    0,000;    0,000;612,00000
 319,14;  696,000;    0,000;    0,000;696,00000
 319,15;  -62,000;    0,000;    0,000;-62,00000
 319,17;  220,000;    0,000;    0,000;220,00000
 319,19;  465,000;    0,000;    0,000;465,00000
 319,21;  233,000;    0,000;    0,000;233,00000
 319,23; -122,000;    0,000;    0,000;-122,00000
 319,25; -404,000;    0,000;    0,000;-404,00000
 319,27;  628,000;    0,000;    0,000;628,00000
 319,29;  776,000;    0,000;    0,000;776,00000
 319,31; -497,000;    0,000;    0,000;-497,00000
 319,33; -188,000;    0,000;    0,000;-188,00000
 319,35; 1072,000;    0,000;    0,000;1072,00000
 319,36;  457,000;    0,000;    0,000;457,00000
 319,38;  432,000;    0,000;    0,000;432,00000
 319,40;    1,000;    0,000;    0,000; 1,00000
 319,42;  584,000;    0,000;    0,000;584,00000
 319,44;  577,000;    0,000;    0,000;577,00000
 319,46;  241,000;    0,000;    0,000;241,00000
 319,48; -721,000;    0,000;    0,000;-721,00000
 319,50;  715,000;    0,000;    0,000;715,00000
 319,52;   99,000;    0,000;    0,000;99,00000
 319,54;  489,000;    0,000;    0,000;489,00000
 319,55; -330,000;    0,000;    0,000;-330,00000
 319,57;  822,000;    0,000;    0,000;822,00000
 319,59; 1363,000;    0,000;    0,000;1363,00000
 319,61;   32,000;    0,000;    0,000;32,00000
 319,63;   44,000;    0,000;    0,000;44,00000
 319,65;  703,000;    0,000;    0,000;703,00000
 319,67;  242,000;    0,000;    0,000;242,00000
 319,69; -288,000;    0,000;    0,000;-288,00000
 319,71; -371,000;    0,000;    0,000;-371,00000
 319,73;  566,000;    0,000;    0,000;566,00000
 319,75;  335,000;    0,000;    0,000;335,00000
 319,76; -331,000;    0,000;    0,000;-331,00000
 319,78;  141,000;    0,000;    0,000;141,00000
 319,80;  561,000;    0,000;    0,000;561,00000
 319,82;  742,000;    0,000;    0,000;742,00000
 319,84; -104,000;    0,000;    0,000;-104,00000
 319,86;  414,000;    0,000;    0,000;414,00000
 319,88; 1437,000;    0,000;    0,000;1437,00000
 319,90;  500,000;    0,000;    0,000;500,00000
 319,92; -109,000;    0,000;    0,000;-109,00000
 319,94; -763,000;    0,000;    0,000;-763,00000
 319,95;  607,000;    0,000;    0,000;607,00000
 319,97; 1062,000;    0,000;    0,000;1062,00000
 319,99; -224,000;    0,000;    0,000;-224,00000
 320,01; -215,000;    0,000;    0,000;-215,00000
 320,03;  943,000;    0,000;    0,000;943,00000
 320,05;  697,000;    0,000;    0,000;697,00000
 320,07; -523,000;    0,000;    0,000;-523,00000
 320,09;  -99,000;    0,000;    0,000;-99,00000
 320,11;  673,000;    0,000;    0,000;673,00000
 320,12;  345,000;    0,000;    0,000;345,00000
 320,14;   93,000;    0,000;    0,000;93,00000
 320,16; -452,000;    0,000;    0,000;-452,00000
 320,18;  693,000;    0,000;    0,000;693,00000
 320,20;  868,000;    0,000;    0,000;868,00000
 320,22; -157,000;    0,000;    0,000;-157,00000
 320,24; -144,000;    0,000;    0,000;-144,00000
 320,26;  692,000;    0,000;    0,000;692,00000
 320,28;  332,000;    0,000;    0,000;332,00000
 320,30; -470,000;    0,000;    0,000;-470,00000
 320,31; -409,000;    0,000;    0,000;-409,00000
 320,33; 1056,000;    0,000;    0,000;1056,00000
 320,35;  371,000;    0,000;    0,000;371,00000
 320,37;  262,000;    0,000;    0,000;262,00000
 320,39; -210,000;    0,000;    0,000;-210,00000
 320,41;  500,000;    0,000;    0,000;500,00000
 320,43; 1057,000;    0,000;    0,000;1057,00000
 320,45;  172,000;    0,000;    0,000;172,00000
 320,47; -226,000;    0,000;    0,000;-226,00000
 320,48;  733,000;    0,000;    0,000;733,00000
 320,50;  113,000;    0,000;    0,000;113,00000
 320,52; -195,000;    0,000;    0,000;-195,00000
 320,54; -341,000;    0,000;    0,000;-341,00000
 320,56;  889,000;    0,000;    0,000;889,00000
 320,58;  402,000;    0,000;    0,000;402,00000
 320,60;  137,000;    0,000;    0,000;137,00000
 320,62; -438,000;    0,000;    0,000;-438,00000
 320,64;  370,000;    0,000;    0,000;370,00000
 320,65;  610,000;    0,000;    0,000;610,00000
 320,67; -151,000;    0,000;    0,000;-151,00000
 320,69; -304,000;    0,000;    0,000;-304,00000
 320,71;  535,000;    0,000;    0,000;535,00000
 320,73;  440,000;    0,000;    0,000;440,00000
 320,75;  477,000;    0,000;    0,000;477,00000
 320,77; -354,000;    0,000;    0,000;-354,00000
 320,79;  544,000;    0,000;    0,000;544,00000
 320,81;  269,000;    0,000;    0,000;269,00000
 320,82;  110,000;    0,000;    0,000;110,00000
 320,84; -216,000;    0,000;    0,000;-216,00000
 320,86;  391,000;    0,000;    0,000;391,00000
 320,88;  377,000;    0,000;    0,000;377,00000
 320,90; -415,000;    0,000;    0,000;-415,00000
 320,92; -370,000;    0,000;    0,000;-370,00000
 320,94;  694,000;    0,000;    0,000;694,00000
 320,96;  757,000;    0,000;    0,000;757,00000
 320,98;  181,000;    0,000;    0,000;181,00000
 320,99; -352,000;    0,000;    0,000;-352,00000
 321,01;  271,000;    0,000;    0,000;271,00000
 321,03;  620,000;    0,000;    0,000;620,00000
 321,05;  377,000;    0,000;    0,000;377,00000
 321,07;  -72,000;    0,000;    0,000;-72,00000
 321,09;  242,000;    0,000;    0,000;242,00000
 321,11;  797,000;    0,000;    0,000;797,00000
 321,13;  -12,000;    0,000;    0,000;-12,00000
 321,15;  662,000;    0,000;    0,000;662,00000
 321,16;  724,000;    0,000;    0,000;724,00000
 321,18;  294,000;    0,000;    0,000;294,00000
 321,20;  329,000;    0,000;    0,000;329,00000
 321,22; -413,000;    0,000;    0,000;-413,00000
 321,24;  137,000;    0,000;    0,000;137,00000
 321,26;  203,000;    0,000;    0,000;203,00000
 321,28; -145,000;    0,000;    0,000;-145,00000
 321,30; -464,000;    0,000;    0,000;-464,00000
 321,31;  500,000;    0,000;    0,000;500,00000
 321,33;  314,000;    0,000;    0,000;314,00000
 321,35;   62,000;    0,000;    0,000;62,00000
 321,37; -333,000;    0,000;    0,000;-333,00000
 321,39;  874,000;    0,000;    0,000;874,00000
 321,41;   89,000;    0,000;    0,000;89,00000
 321,43;   99,000;    0,000;    0,000;99,00000
 321,45; -422,000;    0,000;    0,000;-422,00000
 321,47;  728,000;    0,000;    0,000;728,00000
 321,48;  388,000;    0,000;    0,000;388,00000
 321,50;  203,000;    0,000;    0,000;203,00000
 321,52; -153,000;    0,000;    0,000;-153,00000
 321,54;  889,000;    0,000;    0,000;889,00000
 321,56;  403,000;    0,000;    0,000;403,00000
 321,58; -136,000;    0,000;    0,000;-136,00000
 321,60; -327,000;    0,000;    0,000;-327,00000
 321,62;  230,000;    0,000;    0,000;230,00000
 321,63;  388,000;    0,000;    0,000;388,00000
 321,65;  690,000;    0,000;    0,000;690,00000
 321,67;   65,000;    0,000;    0,000;65,00000
 321,69;  517,000;    0,000;    0,000;517,00000
 321,71;  398,000;    0,000;    0,000;398,00000
 321,73; -234,000;    0,000;    0,000;-234,00000
 321,75; -102,000;    0,000;    0,000;-102,00000
 321,77;  971,000;    0,000;    0,000;971,00000
 321,78;  348,000;    0,000;    0,000;348,00000
 321,80;  449,000;    0,000;    0,000;449,00000
 321,82; -240,000;    0,000;    0,000;-240,00000
 321,84;  709,000;    0,000;    0,000;709,00000
 321,86;  931,000;    0,000;    0,000;931,00000
 321,88;  364,000;    0,000;    0,000;364,00000
 321,90;  -16,000;    0,000;    0,000;-16,00000
 321,92;  372,000;    0,000;    0,000;372,00000
 321,93;  372,000;    0,000;    0,000;372,00000
 321,95;   48,000;    0,000;    0,000;48,00000
 321,97; -257,000;    0,000;    0,000;-257,00000
 321,99; 1926,000;    0,000;    0,000;1926,00000
 322,01;  167,000;    0,000;    0,000;167,00000
 322,03;  -56,000;    0,000;    0,000;-56,00000
 322,05; -365,000;    0,000;    0,000;-365,00000
 322,07;  738,000;    0,000;    0,000;738,00000
 322,08;  872,000;    0,000;    0,000;872,00000
 322,10; -128,000;    0,000;    0,000;-128,00000
 322,12;   95,000;    0,000;    0,000;95,00000
 322,14;  718,000;    0,000;    0,000;718,00000
 322,16;  416,000;    0,000;    0,000;416,00000
 322,18;   84,000;    0,000;    0,000;84,00000
 322,20;    1,000;    0,000;    0,000; 1,00000
 322,21;  170,000;    0,000;    0,000;170,00000
 322,23;  224,000;    0,000;    0,000;224,00000
 322,25; -284,000;    0,000;    0,000;-284,00000
 322,27;  -63,000;    0,000;    0,000;-63,00000
 322,29;  669,000;    0,000;    0,000;669,00000
 322,31;  362,000;    0,000;    0,000;362,00000
 322,33;  750,000;    0,000;    0,000;750,00000
 322,35; -393,000;    0,000;    0,000;-393,00000
 322,36; 1101,000;    0,000;    0,000;1101,00000
 322,38;  476,000;    0,000;    0,000;476,00000
 322,40; -345,000;    0,000;    0,000;-345,00000
 322,42; -316,000;    0,000;    0,000;-316,00000
 322,44;  214,000;    0,000;    0,000;214,00000
 322,46;  526,000;    0,000;    0,000;526,00000
 322,48; -368,000;    0,000;    0,000;-368,00000
 322,49;   35,000;    0,000;    0,000;35,00000
 322,51;  498,000;    0,000;    0,000;498,00000
 322,53;  522,000;    0,000;    0,000;522,00000
 322,55;  347,000;    0,000;    0,000;347,00000
 322,57;  103,000;    0,000;    0,000;103,00000
 322,59;  762,000;    0,000;    0,000;762,00000
 322,61;  312,000;    0,000;    0,000;312,00000
 322,63; -273,000;    0,000;    0,000;-273,00000
 322,64; -133,000;    0,000;    0,000;-133,00000
 322,66;  776,000;    0,000;    0,000;776,00000
 322,68;  312,000;    0,000;    0,000;312,00000
 322,70; -184,000;    0,000;    0,000;-184,00000
 322,72;   37,000;    0,000;    0,000;37,00000
 322,74; 1042,000;    0,000;    0,000;1042,00000
 322,76;  793,000;    0,000;    0,000;793,00000
 322,77; -158,000;    0,000;    0,000;-158,00000
 322,79;   37,000;    0,000;    0,000;37,00000
 322,81;  517,000;    0,000;    0,000;517,00000
 322,83;  326,000;    0,000;    0,000;326,00000
 322,85;  139,000;    0,000;    0,000;139,00000
 322,87;  -78,000;    0,000;    0,000;-78,00000
 322,89;  405,000;    0,000;    0,000;405,00000
 322,90;  790,000;    0,000;    0,000;790,00000
 322,92; -215,000;    0,000;    0,000;-215,00000
 322,94;   89,000;    0,000;    0,000;89,00000
 322,96;  945,000;    0,000;    0,000;945,00000
 322,98;  718,000;    0,000;    0,000;718,00000
 323,00; -235,000;    0,000;    0,000;-235,00000
 323,02; -448,000;    0,000;    0,000;-448,00000
 323,04;  481,000;    0,000;    0,000;481,00000
 323,05;  322,000;    0,000;    0,000;322,00000
 323,07; -215,000;    0,000;    0,000;-215,00000
 323,09;  196,000;    0,000;    0,000;196,00000
 323,11;  314,000;    0,000;    0,000;314,00000
 323,13;   34,000;    0,000;    0,000;34,00000
 323,15;  103,000;    0,000;    0,000;103,00000
 323,17; -514,000;    0,000;    0,000;-514,00000
 323,18;  638,000;    0,000;    0,000;638,00000
 323,20;  304,000;    0,000;    0,000;304,00000
 323,22;  -27,000;    0,000;    0,000;-27,00000
 323,24;   59,000;    0,000;    0,000;59,00000
 323,26; 1267,000;    0,000;    0,000;1267,00000
 323,28;  384,000;    0,000;    0,000;384,00000
 323,30;   50,000;    0,000;    0,000;50,00000
 323,31; -378,000;    0,000;    0,000;-378,00000
 323,33;  510,000;    0,000;    0,000;510,00000
 323,35;  347,000;    0,000;    0,000;347,00000
 323,37;   82,000;    0,000;    0,000;82,00000
 323,39; -412,000;    0,000;    0,000;-412,00000
 323,41; 1065,000;    0,000;    0,000;1065,00000
 323,43;   42,000;    0,000;    0,000;42,00000
 323,44;  410,000;    0,000;    0,000;410,00000
 323,46; -276,000;    0,000;    0,000;-276,00000
 323,48;  508,000;    0,000;    0,000;508,00000
 323,50;  594,000;    0,000;    0,000;594,00000
 323,52;  233,000;    0,000;    0,000;233,00000
 323,54;  196,000;    0,000;    0,000;196,00000
 323,55;  762,000;    0,000;    0,000;762,00000
 323,57;  531,000;    0,000;    0,000;531,00000
 323,59;   53,000;    0,000;    0,000;53,00000
 323,61; -620,000;    0,000;    0,000;-620,00000
 323,63;  950,000;    0,000;    0,000;950,00000
 323,65;  454,000;    0,000;    0,000;454,00000
 323,67;  278,000;    0,000;    0,000;278,00000
 323,68; -462,000;    0,000;    0,000;-462,00000
 323,70;  448,000;    0,000;    0,000;448,00000
 323,72;  470,000;    0,000;    0,000;470,00000
 323,74;  519,000;    0,000;    0,000;519,00000
 323,76;  718,000;    0,000;    0,000;718,00000
 323,78;  665,000;    0,000;    0,000;665,00000
 323,80;  261,000;    0,000;    0,000;261,00000
 323,81; -309,000;    0,000;    0,000;-309,00000
 323,83; -401,000;    0,000;    0,000;-401,00000
 323,85;  599,000;    0,000;    0,000;599,00000
 323,87; 1298,000;    0,000;    0,000;1298,00000
 323,89;  275,000;    0,000;    0,000;275,00000
 323,91;  383,000;    0,000;    0,000;383,00000
 323,92;  692,000;    0,000;    0,000;692,00000
 323,94;  751,000;    0,000;    0,000;751,00000
 323,96; -127,000;    0,000;    0,000;-127,00000
 323,98; -651,000;    0,000;    0,000;-651,00000
 324,00;  432,000;    0,000;    0,000;432,00000
 324,02;  777,000;    0,000;    0,000;777,00000
 324,04; -172,000;    0,000;    0,000;-172,00000
 324,05; -600,000;    0,000;    0,000;-600,00000
 324,07;  651,000;    0,000;    0,000;651,00000
 324,09;  547,000;    0,000;    0,000;547,00000
 324,11; -449,000;    0,000;    0,000;-449,00000
 324,13; -385,000;    0,000;    0,000;-385,00000
 324,15;  724,000;    0,000;    0,000;724,00000
 324,16;  365,000;    0,000;    0,000;365,00000
 324,18; -302,000;    0,000;    0,000;-302,00000
 324,20; -307,000;    0,000;    0,000;-307,00000
 324,22;  652,000;    0,000;    0,000;652,00000
 324,24;  669,000;    0,000;    0,000;669,00000
 324,26;  319,000;    0,000;    0,000;319,00000
 324,28; -346,000;    0,000;    0,000;-346,00000
 324,29;  353,000;    0,000;    0,000;353,00000
 324,31;  195,000;    0,000;    0,000;195,00000
 324,33;  151,000;    0,000;    0,000;151,00000
 324,35; -553,000;    0,000;    0,000;-553,00000
 324,37;  343,000;    0,000;    0,000;343,00000
 324,39;  794,000;    0,000;    0,000;794,00000
 324,40; -150,000;    0,000;    0,000;-150,00000
 324,42; -517,000;    0,000;    0,000;-517,00000
 324,44;  860,000;    0,000;    0,000;860,00000
 324,46;  343,000;    0,000;    0,000;343,00000
 324,48;  -41,000;    0,000;    0,000;-41,00000
 324,50;  -60,000;    0,000;    0,000;-60,00000
 324,51;  634,000;    0,000;    0,000;634,00000
 324,53;  171,000;    0,000;    0,000;171,00000
 324,55; 1114,000;    0,000;    0,000;1114,00000
 324,57; -279,000;    0,000;    0,000;-279,00000
 324,59;  664,000;    0,000;    0,000;664,00000
 324,61;  114,000;    0,000;    0,000;114,00000
 324,63; -364,000;    0,000;    0,000;-364,00000
 324,64; -392,000;    0,000;    0,000;-392,00000
 324,66;  571,000;    0,000;    0,000;571,00000
 324,68;  193,000;    0,000;    0,000;193,00000
 324,70; -407,000;    0,000;    0,000;-407,00000
 324,72; -373,000;    0,000;    0,000;-373,00000
 324,74;  384,000;    0,000;    0,000;384,00000
 324,75;  265,000;    0,000;    0,000;265,00000
 324,77;  341,000;    0,000;    0,000;341,00000
 324,79; -170,000;    0,000;    0,000;-170,00000
 324,81;  496,000;    0,000;    0,000;496,00000
 324,83;  527,000;    0,000;    0,000;527,00000
 324,85;   75,000;    0,000;    0,000;75,00000
 324,86;   54,000;    0,000;    0,000;54,00000
 324,88;  249,000;    0,000;    0,000;249,00000
 324,90;  151,000;    0,000;    0,000;151,00000
 324,92;  -32,000;    0,000;    0,000;-32,00000
 324,94; -329,000;    0,000;    0,000;-329,00000
 324,96;  395,000;    0,000;    0,000;395,00000
 324,97;  740,000;    0,000;    0,000;740,00000
 324,99; -358,000;    0,000;    0,000;-358,00000
 325,01; -465,000;    0,000;    0,000;-465,00000
 325,03; 1068,000;    0,000;    0,000;1068,00000
 325,05;   23,000;    0,000;    0,000;23,00000
 325,07;  -16,000;    0,000;    0,000;-16,00000
 325,08; -462,000;    0,000;    0,000;-462,00000
 325,10;  524,000;    0,000;    0,000;524,00000
 325,12;  807,000;    0,000;    0,000;807,00000
 325,14; -180,000;    0,000;    0,000;-180,00000
 325,16;   79,000;    0,000;    0,000;79,00000
 325,18;  463,000;    0,000;    0,000;463,00000
 325,19;  249,000;    0,000;    0,000;249,00000
 325,21;  -84,000;    0,000;    0,000;-84,00000
 325,23; -115,000;    0,000;    0,000;-115,00000
 325,25;  652,000;    0,000;    0,000;652,00000
 325,27;  689,000;    0,000;    0,000;689,00000
 325,29; -145,000;    0,000;    0,000;-145,00000
 325,30;  603,000;    0,000;    0,000;603,00000
 325,32; 1223,000;    0,000;    0,000;1223,00000
 325,34; 1109,000;    0,000;    0,000;1109,00000
 325,36; -175,000;    0,000;    0,000;-175,00000
 325,38; -413,000;    0,000;    0,000;-413,00000
 325,40;  468,000;    0,000;    0,000;468,00000
 325,41;  363,000;    0,000;    0,000;363,00000
 325,43; -315,000;    0,000;    0,000;-315,00000
 325,45;   98,000;    0,000;    0,000;98,00000
 325,47;  954,000;    0,000;    0,000;954,00000
 325,49;  213,000;    0,000;    0,000;213,00000
 325,50;  -98,000;    0,000;    0,000;-98,00000
 325,52; -684,000;    0,000;    0,000;-684,00000
 325,54;  339,000;    0,000;    0,000;339,00000
 325,56;  264,000;    0,000;    0,000;264,00000
 325,58;  121,000;    0,000;    0,000;121,00000
 325,60;  378,000;    0,000;    0,000;378,00000
 325,61;  542,000;    0,000;    0,000;542,00000
 325,63;  525,000;    0,000;    0,000;525,00000
 325,65; -176,000;    0,000;    0,000;-176,00000
 325,67; -274,000;    0,000;    0,000;-274,00000
 325,69; 1607,000;    0,000;    0,000;1607,00000
 325,71; 1112,000;    0,000;    0,000;1112,00000
 325,72;  163,000;    0,000;    0,000;163,00000
 325,74; -331,000;    0,000;    0,000;-331,00000
 325,76;  771,000;    0,000;    0,000;771,00000
 325,78;   83,000;    0,000;    0,000;83,00000
 325,80; -272,000;    0,000;    0,000;-272,00000
 325,82; -591,000;    0,000;    0,000;-591,00000
 325,83;  175,000;    0,000;    0,000;175,00000
 325,85;  453,000;    0,000;    0,000;453,00000
 325,87; -252,000;    0,000;    0,000;-252,00000
 325,89; -349,000;    0,000;    0,000;-349,00000
 325,91;  365,000;    0,000;    0,000;365,00000
 325,92;   97,000;    0,000;    0,000;97,00000
 325,94; -381,000;    0,000;    0,000;-381,00000
 325,96;  133,000;    0,000;    0,000;133,00000
 325,98;  320,000;    0,000;    0,000;320,00000
 326,00;  242,000;    0,000;    0,000;242,00000
 326,02; -297,000;    0,000;    0,000;-297,00000
 326,03; -329,000;    0,000;    0,000;-329,00000
 326,05;  967,000;    0,000;    0,000;967,00000
 326,07;  819,000;    0,000;    0,000;819,00000
 326,09;  687,000;    0,000;    0,000;687,00000
 326,11; -445,000;    0,000;    0,000;-445,00000
 326,12;  840,000;    0,000;    0,000;840,00000
 326,14;  229,000;    0,000;    0,000;229,00000
 326,16; -478,000;    0,000;    0,000;-478,00000
 326,18; -433,000;    0,000;    0,000;-433,00000
 326,20;  448,000;    0,000;    0,000;448,00000
 326,22;  185,000;    0,000;    0,000;185,00000
 326,23;  -71,000;    0,000;    0,000;-71,00000
 326,25; -250,000;    0,000;    0,000;-250,00000
 326,27;  672,000;    0,000;    0,000;672,00000
 326,29;  375,000;    0,000;    0,000;375,00000
 326,31;  581,000;    0,000;    0,000;581,00000
 326,32; -282,000;    0,000;    0,000;-282,00000
 326,34;  509,000;    0,000;    0,000;509,00000
 326,36;  143,000;    0,000;    0,000;143,00000
 326,38;  972,000;    0,000;    0,000;972,00000
 326,40; -386,000;    0,000;    0,000;-386,00000
 326,42;  431,000;    0,000;    0,000;431,00000
 326,43;  304,000;    0,000;    0,000;304,00000
 326,45;  232,000;    0,000;    0,000;232,00000
 326,47; -505,000;    0,000;    0,000;-505,00000
 326,49; 1145,000;    0,000;    0,000;1145,00000
 326,51;  599,000;    0,000;    0,000;599,00000
 326,52;   94,000;    0,000;    0,000;94,00000
 326,54;  397,000;    0,000;    0,000;397,00000
 326,56;  980,000;    0,000;    0,000;980,00000
 326,58;  672,000;    0,000;    0,000;672,00000
 326,60; -264,000;    0,000;    0,000;-264,00000
 326,61;  308,000;    0,000;    0,000;308,00000
 326,63; 1651,000;    0,000;    0,000;1651,00000
 326,65;  625,000;    0,000;    0,000;625,00000
 326,67;  196,000;    0,000;    0,000;196,00000
 326,69;  -75,000;    0,000;    0,000;-75,00000
 326,71;  850,000;    0,000;    0,000;850,00000
 326,72;  165,000;    0,000;    0,000;165,00000
 326,74; -237,000;    0,000;    0,000;-237,00000
 326,76;  505,000;    0,000;    0,000;505,00000
 326,78;  771,000;    0,000;    0,000;771,00000
 326,80;  172,000;    0,000;    0,000;172,00000
 326,81; -531,000;    0,000;    0,000;-531,00000
 326,83; -377,000;    0,000;    0,000;-377,00000
 326,85;  735,000;    0,000;    0,000;735,00000
 326,87;  119,000;    0,000;    0,000;119,00000
 326,89;  -20,000;    0,000;    0,000;-20,00000
 326,90;  388,000;    0,000;    0,000;388,00000
 326,92;  968,000;    0,000;    0,000;968,00000
 326,94;  607,000;    0,000;    0,000;607,00000
 326,96;  150,000;    0,000;    0,000;150,00000
 326,98; -527,000;    0,000;    0,000;-527,00000
 326,99;  856,000;    0,000;    0,000;856,00000
 327,01;  467,000;    0,000;    0,000;467,00000
 327,03;   62,000;    0,000;    0,000;62,00000
 327,05; -234,000;    0,000;    0,000;-234,00000
 327,07; 1001,000;    0,000;    0,000;1001,00000
 327,09;  897,000;    0,000;    0,000;897,00000
 327,10;   30,000;    0,000;    0,000;30,00000
 327,12; -718,000;    0,000;    0,000;-718,00000
 327,14;  511,000;    0,000;    0,000;511,00000
 327,16;  224,000;    0,000;    0,000;224,00000
 327,18;  431,000;    0,000;    0,000;431,00000
 327,19; -372,000;    0,000;    0,000;-372,00000
 327,21;  841,000;    0,000;    0,000;841,00000
 327,23;  503,000;    0,000;    0,000;503,00000
 327,25;  -18,000;    0,000;    0,000;-18,00000
 327,27;  -83,000;    0,000;    0,000;-83,00000
 327,28;  478,000;    0,000;    0,000;478,00000
 327,30;  496,000;    0,000;    0,000;496,00000
 327,32;  -18,000;    0,000;    0,000;-18,00000
 327,34;  556,000;    0,000;    0,000;556,00000
 327,36;  419,000;    0,000;    0,000;419,00000
 327,37;  474,000;    0,000;    0,000;474,00000
 327,39;  222,000;    0,000;    0,000;222,00000
 327,41; -290,000;    0,000;    0,000;-290,00000
 327,43;  794,000;    0,000;    0,000;794,00000
 327,45;  589,000;    0,000;    0,000;589,00000
 327,46;  147,000;    0,000;    0,000;147,00000
 327,48;  512,000;    0,000;    0,000;512,00000
 327,50;  657,000;    0,000;    0,000;657,00000
 327,52;  304,000;    0,000;    0,000;304,00000
 327,54;  383,000;    0,000;    0,000;383,00000
 327,55; -367,000;    0,000;    0,000;-367,00000
 327,57;  516,000;    0,000;    0,000;516,00000
 327,59;  272,000;    0,000;    0,000;272,00000
 327,61;  200,000;    0,000;    0,000;200,00000
 327,63;  495,000;    0,000;    0,000;495,00000
 327,64;  747,000;    0,000;    0,000;747,00000
 327,66;  523,000;    0,000;    0,000;523,00000
 327,68; -124,000;    0,000;    0,000;-124,00000
 327,70;  205,000;    0,000;    0,000;205,00000
 327,72;  546,000;    0,000;    0,000;546,00000
 327,73;  725,000;    0,000;    0,000;725,00000
 327,75;  -26,000;    0,000;    0,000;-26,00000
 327,77;  471,000;    0,000;    0,000;471,00000
 327,79;  511,000;    0,000;    0,000;511,00000
 327,81;  822,000;    0,000;    0,000;822,00000
 327,82;  521,000;    0,000;    0,000;521,00000
 327,84; -384,000;    0,000;    0,000;-384,00000
 327,86;  520,000;    0,000;    0,000;520,00000
 327,88;  237,000;    0,000;    0,000;237,00000
 327,90;  -99,000;    0,000;    0,000;-99,00000
 327,91; -184,000;    0,000;    0,000;-184,00000
 327,93; 1126,000;    0,000;    0,000;1126,00000
 327,95;  275,000;    0,000;    0,000;275,00000
 327,97;   29,000;    0,000;    0,000;29,00000
 327,98; -492,000;    0,000;    0,000;-492,00000
 328,00; 1748,000;    0,000;    0,000;1748,00000
 328,02;  404,000;    0,000;    0,000;404,00000
 328,04;   50,000;    0,000;    0,000;50,00000
 328,06; -124,000;    0,000;    0,000;-124,00000
 328,07;  534,000;    0,000;    0,000;534,00000
 328,09;  629,000;    0,000;    0,000;629,00000
 328,11; -200,000;    0,000;    0,000;-200,00000
 328,13;  -34,000;    0,000;    0,000;-34,00000
 328,15;  654,000;    0,000;    0,000;654,00000
 328,16;  590,000;    0,000;    0,000;590,00000
 328,18; -301,000;    0,000;    0,000;-301,00000
 328,20;  -77,000;    0,000;    0,000;-77,00000
 328,22;  723,000;    0,000;    0,000;723,00000
 328,24;  772,000;    0,000;    0,000;772,00000
 328,25; -325,000;    0,000;    0,000;-325,00000
 328,27; -169,000;    0,000;    0,000;-169,00000
 328,29;  728,000;    0,000;    0,000;728,00000
 328,31;  963,000;    0,000;    0,000;963,00000
 328,33; -462,000;    0,000;    0,000;-462,00000
 328,34; -423,000;    0,000;    0,000;-423,00000
 328,36;  484,000;    0,000;    0,000;484,00000
 328,38;  733,000;    0,000;    0,000;733,00000
 328,40;  -90,000;    0,000;    0,000;-90,00000
 328,41; -226,000;    0,000;    0,000;-226,00000
 328,43;  615,000;    0,000;    0,000;615,00000
 328,45;  251,000;    0,000;    0,000;251,00000
 328,47;  155,000;    0,000;    0,000;155,00000
 328,49; -336,000;    0,000;    0,000;-336,00000
 328,50;  417,000;    0,000;    0,000;417,00000
 328,52;  279,000;    0,000;    0,000;279,00000
 328,54; -278,000;    0,000;    0,000;-278,00000
 328,56; -247,000;    0,000;    0,000;-247,00000
 328,58;  552,000;    0,000;    0,000;552,00000
 328,59; 1390,000;    0,000;    0,000;1390,00000
 328,61;  176,000;    0,000;    0,000;176,00000
 328,63; -256,000;    0,000;    0,000;-256,00000
 328,65;  761,000;    0,000;    0,000;761,00000
 328,66;  959,000;    0,000;    0,000;959,00000
 328,68; -219,000;    0,000;    0,000;-219,00000
 328,70; -185,000;    0,000;    0,000;-185,00000
 328,72;  668,000;    0,000;    0,000;668,00000
 328,74;  190,000;    0,000;    0,000;190,00000
 328,75; -118,000;    0,000;    0,000;-118,00000
 328,77; -196,000;    0,000;    0,000;-196,00000
 328,79;  810,000;    0,000;    0,000;810,00000
 328,81;  937,000;    0,000;    0,000;937,00000
 328,83; -117,000;    0,000;    0,000;-117,00000
 328,84; -550,000;    0,000;    0,000;-550,00000
 328,86;  584,000;    0,000;    0,000;584,00000
 328,88;  580,000;    0,000;    0,000;580,00000
 328,90;  -57,000;    0,000;    0,000;-57,00000
 328,91;  539,000;    0,000;    0,000;539,00000
 328,93;  927,000;    0,000;    0,000;927,00000
 328,95;  619,000;    0,000;    0,000;619,00000
 328,97; -110,000;    0,000;    0,000;-110,00000
 328,99; -401,000;    0,000;    0,000;-401,00000
 329,00;  892,000;    0,000;    0,000;892,00000
 329,02;  903,000;    0,000;    0,000;903,00000
 329,04; -142,000;    0,000;    0,000;-142,00000
 329,06; -244,000;    0,000;    0,000;-244,00000
 329,07;  980,000;    0,000;    0,000;980,00000
 329,09;  273,000;    0,000;    0,000;273,00000
 329,11;  -46,000;    0,000;    0,000;-46,00000
 329,13; -324,000;    0,000;    0,000;-324,00000
 329,15;  360,000;    0,000;    0,000;360,00000
 329,16;   59,000;    0,000;    0,000;59,00000
 329,18;  -59,000;    0,000;    0,000;-59,00000
 329,20; -552,000;    0,000;    0,000;-552,00000
 329,22;  474,000;    0,000;    0,000;474,00000
 329,23;  779,000;    0,000;    0,000;779,00000
 329,25; -300,000;    0,000;    0,000;-300,00000
 329,27; -704,000;    0,000;    0,000;-704,00000
 329,29;  656,000;    0,000;    0,000;656,00000
 329,31; 1052,000;    0,000;    0,000;1052,00000
 329,32; -374,000;    0,000;    0,000;-374,00000
 329,34; -437,000;    0,000;    0,000;-437,00000
 329,36; 1172,000;    0,000;    0,000;1172,00000
 329,38;  391,000;    0,000;    0,000;391,00000
 329,39;   22,000;    0,000;    0,000;22,00000
 329,41;  366,000;    0,000;    0,000;366,00000
 329,43;  408,000;    0,000;    0,000;408,00000
 329,45;  127,000;    0,000;    0,000;127,00000
 329,47; -482,000;    0,000;    0,000;-482,00000
 329,48;   64,000;    0,000;    0,000;64,00000
 329,50;  547,000;    0,000;    0,000;547,00000
 329,52;  491,000;    0,000;    0,000;491,00000
 329,54; -496,000;    0,000;    0,000;-496,00000
 329,55; -282,000;    0,000;    0,000;-282,00000
 329,57; 1288,000;    0,000;    0,000;1288,00000
 329,59;  307,000;    0,000;    0,000;307,00000
 329,61;   64,000;    0,000;    0,000;64,00000
 329,62; -427,000;    0,000;    0,000;-427,00000
 329,64;  969,000;    0,000;    0,000;969,00000
 329,66;  345,000;    0,000;    0,000;345,00000
 329,68;  730,000;    0,000;    0,000;730,00000
 329,70; -177,000;    0,000;    0,000;-177,00000
 329,71;  639,000;    0,000;    0,000;639,00000
 329,73;  816,000;    0,000;    0,000;816,00000
 329,75; -483,000;    0,000;    0,000;-483,00000
 329,77; -266,000;    0,000;    0,000;-266,00000
 329,78;  624,000;    0,000;    0,000;624,00000
 329,80; 1005,000;    0,000;    0,000;1005,00000
 329,82; -278,000;    0,000;    0,000;-278,00000
 329,84; -166,000;    0,000;    0,000;-166,00000
 329,85;  293,000;    0,000;    0,000;293,00000
 329,87;  343,000;    0,000;    0,000;343,00000
 329,89;  457,000;    0,000;    0,000;457,00000
 329,91;  -50,000;    0,000;    0,000;-50,00000
 329,93; 1001,000;    0,000;    0,000;1001,00000
 329,94;  354,000;    0,000;    0,000;354,00000
 329,96; -210,000;    0,000;    0,000;-210,00000
 329,98; -624,000;    0,000;    0,000;-624,00000
 330,00;  595,000;    0,000;    0,000;595,00000
 330,01;  174,000;    0,000;    0,000;174,00000
 330,03;  195,000;    0,000;    0,000;195,00000
 330,05; -542,000;    0,000;    0,000;-542,00000
 330,07; 1106,000;    0,000;    0,000;1106,00000
 330,08;  505,000;    0,000;    0,000;505,00000
 330,10;  159,000;    0,000;    0,000;159,00000
 330,12; -267,000;    0,000;    0,000;-267,00000
 330,14; 2223,000;    0,000;    0,000;2223,00000
 330,15;  846,000;    0,000;    0,000;846,00000
 330,17;  -95,000;    0,000;    0,000;-95,00000
 330,19; -409,000;    0,000;    0,000;-409,00000
 330,21;  501,000;    0,000;    0,000;501,00000
 330,23;  149,000;    0,000;    0,000;149,00000
 330,24; -323,000;    0,000;    0,000;-323,00000
 330,26;  622,000;    0,000;    0,000;622,00000
 330,28;  738,000;    0,000;    0,000;738,00000
 330,30;  276,000;    0,000;    0,000;276,00000
 330,31; -233,000;    0,000;    0,000;-233,00000
 330,33; -104,000;    0,000;    0,000;-104,00000
 330,35; 1089,000;    0,000;    0,000;1089,00000
 330,37;  802,000;    0,000;    0,000;802,00000
 330,38;  108,000;    0,000;    0,000;108,00000
 330,40; -569,000;    0,000;    0,000;-569,00000
 330,42;  622,000;    0,000;    0,000;622,00000
 330,44;  406,000;    0,000;    0,000;406,00000
 330,45;  697,000;    0,000;    0,000;697,00000
 330,47;   93,000;    0,000;    0,000;93,00000
 330,49;  748,000;    0,000;    0,000;748,00000
 330,51;  312,000;    0,000;    0,000;312,00000
 330,52;   71,000;    0,000;    0,000;71,00000
 330,54; -598,000;    0,000;    0,000;-598,00000
 330,56;  477,000;    0,000;    0,000;477,00000
 330,58;  623,000;    0,000;    0,000;623,00000
 330,59;   70,000;    0,000;    0,000;70,00000
 330,61; -433,000;    0,000;    0,000;-433,00000
 330,63;  927,000;    0,000;    0,000;927,00000
 330,65;  504,000;    0,000;    0,000;504,00000
 330,67;  -98,000;    0,000;    0,000;-98,00000
 330,68; -606,000;    0,000;    0,000;-606,00000
 330,70;  444,000;    0,000;    0,000;444,00000
 330,72;  585,000;    0,000;    0,000;585,00000
 330,74; -256,000;    0,000;    0,000;-256,00000
 330,75; -442,000;    0,000;    0,000;-442,00000
 330,77;  589,000;    0,000;    0,000;589,00000
 330,79;  893,000;    0,000;    0,000;893,00000
 330,81;  237,000;    0,000;    0,000;237,00000
 330,82; -183,000;    0,000;    0,000;-183,00000
 330,84;  843,000;    0,000;    0,000;843,00000
 330,86;  208,000;    0,000;    0,000;208,00000
 330,88;   83,000;    0,000;    0,000;83,00000
 330,89;   74,000;    0,000;    0,000;74,00000
 330,91; 1523,000;    0,000;    0,000;1523,00000
 330,93;  617,000;    0,000;    0,000;617,00000
 330,95;   40,000;    0,000;    0,000;40,00000
 330,96; -485,000;    0,000;    0,000;-485,00000
 330,98;  441,000;    0,000;    0,000;441,00000
 331,00;  377,000;    0,000;    0,000;377,00000
 331,02;  169,000;    0,000;    0,000;169,00000
 331,03;  -91,000;    0,000;    0,000;-91,00000
 331,05;  676,000;    0,000;    0,000;676,00000
 331,07;  594,000;    0,000;    0,000;594,00000
 331,09;  245,000;    0,000;    0,000;245,00000
 331,10; -636,000;    0,000;    0,000;-636,00000
 331,12; 1307,000;    0,000;    0,000;1307,00000
 331,14;  961,000;    0,000;    0,000;961,00000
 331,16; -111,000;    0,000;    0,000;-111,00000
 331,17; -430,000;    0,000;    0,000;-430,00000
 331,19;  726,000;    0,000;    0,000;726,00000
 331,21;  763,000;    0,000;    0,000;763,00000
 331,23; -413,000;    0,000;    0,000;-413,00000
 331,24; -578,000;    0,000;    0,000;-578,00000
 331,26;  731,000;    0,000;    0,000;731,00000
 331,28;  506,000;    0,000;    0,000;506,00000
 331,30; -166,000;    0,000;    0,000;-166,00000
 331,31; -291,000;    0,000;    0,000;-291,00000
 331,33;  179,000;    0,000;    0,000;179,00000
 331,35;  407,000;    0,000;    0,000;407,00000
 331,37; -219,000;    0,000;    0,000;-219,00000
 331,38; -318,000;    0,000;    0,000;-318,00000
 331,40; 1071,000;    0,000;    0,000;1071,00000
 331,42;  547,000;    0,000;    0,000;547,00000
 331,44; -188,000;    0,000;    0,000;-188,00000
 331,45;  116,000;    0,000;    0,000;116,00000
 331,47;  645,000;    0,000;    0,000;645,00000
 331,49;  507,000;    0,000;    0,000;507,00000
 331,51;  520,000;    0,000;    0,000;520,00000
 331,52; -581,000;    0,000;    0,000;-581,00000
 331,54;  512,000;    0,000;    0,000;512,00000
 331,56;  642,000;    0,000;    0,000;642,00000
 331,58;   90,000;    0,000;    0,000;90,00000
 331,59; -179,000;    0,000;    0,000;-179,00000
 331,61;  660,000;    0,000;    0,000;660,00000
 331,63;  607,000;    0,000;    0,000;607,00000
 331,64;  165,000;    0,000;    0,000;165,00000
 331,66; -586,000;    0,000;    0,000;-586,00000
 331,68;  757,000;    0,000;    0,000;757,00000
 331,70;  709,000;    0,000;    0,000;709,00000
 331,71; -476,000;    0,000;    0,000;-476,00000
 331,73; -166,000;    0,000;    0,000;-166,00000
 331,75; 1349,000;    0,000;    0,000;1349,00000
 331,77;  330,000;    0,000;    0,000;330,00000
 331,78; -319,000;    0,000;    0,000;-319,00000
 331,80; -135,000;    0,000;    0,000;-135,00000
 331,82;  735,000;    0,000;    0,000;735,00000
 331,84;  916,000;    0,000;    0,000;916,00000
 331,85;  511,000;    0,000;    0,000;511,00000
 331,87; -412,000;    0,000;    0,000;-412,00000
 331,89;  841,000;    0,000;    0,000;841,00000
 331,91;  309,000;    0,000;    0,000;309,00000
 331,92;  -10,000;    0,000;    0,000;-10,00000
 331,94;  169,000;    0,000;    0,000;169,00000
 331,96;  560,000;    0,000;    0,000;560,00000
 331,98;  710,000;    0,000;    0,000;710,00000
 331,99;  191,000;    0,000;    0,000;191,00000
 332,01; -730,000;    0,000;    0,000;-730,00000
 332,03;  717,000;    0,000;    0,000;717,00000
 332,04;  313,000;    0,000;    0,000;313,00000
 332,06; -357,000;    0,000;    0,000;-357,00000
 332,08; -321,000;    0,000;    0,000;-321,00000
 332,10;  631,000;    0,000;    0,000;631,00000
 332,11;  720,000;    0,000;    0,000;720,00000
 332,13;  101,000;    0,000;    0,000;101,00000
 332,15; -631,000;    0,000;    0,000;-631,00000
 332,17;  834,000;    0,000;    0,000;834,00000
 332,18;  695,000;    0,000;    0,000;695,00000
 332,20; -236,000;    0,000;    0,000;-236,00000
 332,22; -474,000;    0,000;    0,000;-474,00000
 332,24;  975,000;    0,000;    0,000;975,00000
 332,25;  612,000;    0,000;    0,000;612,00000
 332,27;  -92,000;    0,000;    0,000;-92,00000
 332,29; -539,000;    0,000;    0,000;-539,00000
 332,31;  499,000;    0,000;    0,000;499,00000
 332,32;  363,000;    0,000;    0,000;363,00000
 332,34; -100,000;    0,000;    0,000;-100,00000
 332,36;  199,000;    0,000;    0,000;199,00000
 332,37;  863,000;    0,000;    0,000;863,00000
 332,39;  625,000;    0,000;    0,000;625,00000
 332,41; -318,000;    0,000;    0,000;-318,00000
 332,43; -135,000;    0,000;    0,000;-135,00000
 332,44;  760,000;    0,000;    0,000;760,00000
 332,46;  977,000;    0,000;    0,000;977,00000
 332,48; -549,000;    0,000;    0,000;-549,00000
 332,50; -440,000;    0,000;    0,000;-440,00000
 332,51;  683,000;    0,000;    0,000;683,00000
 332,53;  269,000;    0,000;    0,000;269,00000
 332,55; -305,000;    0,000;    0,000;-305,00000
 332,56; -351,000;    0,000;    0,000;-351,00000
 332,58;  996,000;    0,000;    0,000;996,00000
 332,60;  759,000;    0,000;    0,000;759,00000
 332,62;  393,000;    0,000;    0,000;393,00000
 332,63; -481,000;    0,000;    0,000;-481,00000
 332,65;  607,000;    0,000;    0,000;607,00000
 332,67;  705,000;    0,000;    0,000;705,00000
 332,69; -234,000;    0,000;    0,000;-234,00000
 332,70;   64,000;    0,000;    0,000;64,00000
 332,72;  648,000;    0,000;    0,000;648,00000
 332,74;  447,000;    0,000;    0,000;447,00000
 332,75;  181,000;    0,000;    0,000;181,00000
 332,77;  570,000;    0,000;    0,000;570,00000
 332,79; 1048,000;    0,000;    0,000;1048,00000
 332,81;  901,000;    0,000;    0,000;901,00000
 332,82; -272,000;    0,000;    0,000;-272,00000
 332,84;  -84,000;    0,000;    0,000;-84,00000
 332,86;  691,000;    0,000;    0,000;691,00000
 332,88;  535,000;    0,000;    0,000;535,00000
 332,89; -269,000;    0,000;    0,000;-269,00000
 332,91; -199,000;    0,000;    0,000;-199,00000
 332,93;  378,000;    0,000;    0,000;378,00000
 332,94;  641,000;    0,000;    0,000;641,00000
 332,96; -356,000;    0,000;    0,000;-356,00000
 332,98; -321,000;    0,000;    0,000;-321,00000
 333,00;  737,000;    0,000;    0,000;737,00000
 333,01;  492,000;    0,000;    0,000;492,00000
 333,03; -151,000;    0,000;    0,000;-151,00000
 333,05;  591,000;    0,000;    0,000;591,00000
 333,07;  832,000;    0,000;    0,000;832,00000
 333,08;  680,000;    0,000;    0,000;680,00000
 333,10;  132,000;    0,000;    0,000;132,00000
 333,12; -330,000;    0,000;    0,000;-330,00000
 333,13; 1200,000;    0,000;    0,000;1200,00000
 333,15;  589,000;    0,000;    0,000;589,00000
 333,17;  -14,000;    0,000;    0,000;-14,00000
 333,19;  -97,000;    0,000;    0,000;-97,00000
 333,20; 1151,000;    0,000;    0,000;1151,00000
 333,22; 1535,000;    0,000;    0,000;1535,00000
 333,24;  443,000;    0,000;    0,000;443,00000
 333,25; -108,000;    0,000;    0,000;-108,00000
 333,27;  794,000;    0,000;    0,000;794,00000
 333,29;  385,000;    0,000;    0,000;385,00000
 333,31; -236,000;    0,000;    0,000;-236,00000
 333,32; -659,000;    0,000;    0,000;-659,00000
 333,34;  476,000;    0,000;    0,000;476,00000
 333,36;  402,000;    0,000;    0,000;402,00000
 333,37;  313,000;    0,000;    0,000;313,00000
 333,39; -573,000;    0,000;    0,000;-573,00000
 333,41;  691,000;    0,000;    0,000;691,00000
 333,43; 1493,000;    0,000;    0,000;1493,00000
 333,44;  213,000;    0,000;    0,000;213,00000
 333,46;  -90,000;    0,000;    0,000;-90,00000
 333,48;  898,000;    0,000;    0,000;898,00000
 333,49;  401,000;    0,000;    0,000;401,00000
 333,51;  601,000;    0,000;    0,000;601,00000
 333,53; -198,000;    0,000;    0,000;-198,00000
 333,55; 1377,000;    0,000;    0,000;1377,00000
 333,56;  612,000;    0,000;    0,000;612,00000
 333,58;  975,000;    0,000;    0,000;975,00000
 333,60; -422,000;    0,000;    0,000;-422,00000
 333,61;  505,000;    0,000;    0,000;505,00000
 333,63;  676,000;    0,000;    0,000;676,00000
 333,65; -116,000;    0,000;    0,000;-116,00000
 333,67;  457,000;    0,000;    0,000;457,00000
 333,68; 1049,000;    0,000;    0,000;1049,00000
 333,70;  696,000;    0,000;    0,000;696,00000
 333,72;  328,000;    0,000;    0,000;328,00000
 333,73; -131,000;    0,000;    0,000;-131,00000
 333,75;  945,000;    0,000;    0,000;945,00000
 333,77; 1036,000;    0,000;    0,000;1036,00000
 333,79;  -68,000;    0,000;    0,000;-68,00000
 333,80; -329,000;    0,000;    0,000;-329,00000
 333,82; 1371,000;    0,000;    0,000;1371,00000
 333,84;  158,000;    0,000;    0,000;158,00000
 333,85; -370,000;    0,000;    0,000;-370,00000
 333,87; -325,000;    0,000;    0,000;-325,00000
 333,89; 1802,000;    0,000;    0,000;1802,00000
 333,91;  671,000;    0,000;    0,000;671,00000
 333,92;   81,000;    0,000;    0,000;81,00000
 333,94;  -46,000;    0,000;    0,000;-46,00000
 333,96;  752,000;    0,000;    0,000;752,00000
 333,97; 1340,000;    0,000;    0,000;1340,00000
 333,99;  848,000;    0,000;    0,000;848,00000
 334,01;  644,000;    0,000;    0,000;644,00000
 334,03; 1875,000;    0,000;    0,000;1875,00000
 334,04; 2635,000;    0,000;    0,000;2635,00000
 334,06; 5188,000;    0,000;    0,000;5188,00000
 334,08;13191,000;    0,000;    0,000;13191,00000
 334,09;31740,000;    0,000;    0,000;31740,00000
 334,11;61784,000;    0,000;    0,000;61784,00000
 334,13;62054,000;    0,000;    0,000;62054,00000
 334,15;61784,000;    0,000;    0,000;61784,00000
 334,16;62054,000;    0,000;    0,000;62054,00000
 334,18;61784,000;    0,000;    0,000;61784,00000
 334,20;62054,000;    0,000;    0,000;62054,00000
 334,21;61784,000;    0,000;    0,000;61784,00000
 334,23;59628,000;    0,000;    0,000;59628,00000
 334,25;15115,000;    0,000;    0,000;15115,00000
 334,26; 3689,000;    0,000;    0,000;3689,00000
 334,28; 2610,000;    0,000;    0,000;2610,00000
 334,30; 3155,000;    0,000;    0,000;3155,00000
 334,32; 1851,000;    0,000;    0,000;1851,00000
 334,33; 1346,000;    0,000;    0,000;1346,00000
 334,35;  634,000;    0,000;    0,000;634,00000
 334,37; 1391,000;    0,000;    0,000;1391,00000
 334,38; 1183,000;    0,000;    0,000;1183,00000
 334,40;   58,000;    0,000;    0,000;58,00000
 334,42; -140,000;    0,000;    0,000;-140,00000
 334,43; 1309,000;    0,000;    0,000;1309,00000
 334,45;  955,000;    0,000;    0,000;955,00000
 334,47; 1426,000;    0,000;    0,000;1426,00000
 334,49;   68,000;    0,000;    0,000;68,00000
 334,50; 1486,000;    0,000;    0,000;1486,00000
 334,52;  956,000;    0,000;    0,000;956,00000
 334,54;  526,000;    0,000;    0,000;526,00000
 334,55;  -90,000;    0,000;    0,000;-90,00000
 334,57; 1300,000;    0,000;    0,000;1300,00000
 334,59; 1030,000;    0,000;    0,000;1030,00000
 334,60;  140,000;    0,000;    0,000;140,00000
 334,62;  166,000;    0,000;    0,000;166,00000
 334,64;  937,000;    0,000;    0,000;937,00000
 334,66;  757,000;    0,000;    0,000;757,00000
 334,67;  445,000;    0,000;    0,000;445,00000
 334,69;  245,000;    0,000;    0,000;245,00000
 334,71;  985,000;    0,000;    0,000;985,00000
 334,72;  802,000;    0,000;    0,000;802,00000
 334,74; -315,000;    0,000;    0,000;-315,00000
 334,76;  430,000;    0,000;    0,000;430,00000
 334,77; 1061,000;    0,000;    0,000;1061,00000
 334,79; 1160,000;    0,000;    0,000;1160,00000
 334,81;  595,000;    0,000;    0,000;595,00000
 334,83;  -30,000;    0,000;    0,000;-30,00000
 334,84; 1163,000;    0,000;    0,000;1163,00000
 334,86; 1406,000;    0,000;    0,000;1406,00000
 334,88;  416,000;    0,000;    0,000;416,00000
 334,89;    1,000;    0,000;    0,000; 1,00000
 334,91; 1439,000;    0,000;    0,000;1439,00000
 334,93; 1091,000;    0,000;    0,000;1091,00000
 334,94;  317,000;    0,000;    0,000;317,00000
 334,96;  327,000;    0,000;    0,000;327,00000
 334,98; 1023,000;    0,000;    0,000;1023,00000
 334,99;  901,000;    0,000;    0,000;901,00000
 335,01;   62,000;    0,000;    0,000;62,00000
 335,03; -118,000;    0,000;    0,000;-118,00000
 335,05;  542,000;    0,000;    0,000;542,00000
 335,06;  975,000;    0,000;    0,000;975,00000
 335,08;   41,000;    0,000;    0,000;41,00000
 335,10; -436,000;    0,000;    0,000;-436,00000
 335,11; 1021,000;    0,000;    0,000;1021,00000
 335,13; 1024,000;    0,000;    0,000;1024,00000
 335,15;  246,000;    0,000;    0,000;246,00000
 335,16; -202,000;    0,000;    0,000;-202,00000
 335,18;  936,000;    0,000;    0,000;936,00000
 335,20;  684,000;    0,000;    0,000;684,00000
 335,21; -246,000;    0,000;    0,000;-246,00000
 335,23; -334,000;    0,000;    0,000;-334,00000
 335,25;  991,000;    0,000;    0,000;991,00000
 335,27; 1545,000;    0,000;    0,000;1545,00000
 335,28; -384,000;    0,000;    0,000;-384,00000
 335,30;  -76,000;    0,000;    0,000;-76,00000
 335,32; 1049,000;    0,000;    0,000;1049,00000
 335,33;  739,000;    0,000;    0,000;739,00000
 335,35;  101,000;    0,000;    0,000;101,00000
 335,37;  479,000;    0,000;    0,000;479,00000
 335,38; 1264,000;    0,000;    0,000;1264,00000
 335,40;  346,000;    0,000;    0,000;346,00000
 335,42; -118,000;    0,000;    0,000;-118,00000
 335,43; -338,000;    0,000;    0,000;-338,00000
 335,45; 1118,000;    0,000;    0,000;1118,00000
 335,47;  649,000;    0,000;    0,000;649,00000
 335,49; -217,000;    0,000;    0,000;-217,00000
 335,50; -258,000;    0,000;    0,000;-258,00000
 335,52; 1467,000;    0,000;    0,000;1467,00000
 335,54;  620,000;    0,000;    0,000;620,00000
 335,55;  -39,000;    0,000;    0,000;-39,00000
 335,57; -147,000;    0,000;    0,000;-147,00000
 335,59; 1245,000;    0,000;    0,000;1245,00000
 335,60;  673,000;    0,000;    0,000;673,00000
 335,62; -166,000;    0,000;    0,000;-166,00000
 335,64;  472,000;    0,000;    0,000;472,00000
 335,65;  987,000;    0,000;    0,000;987,00000
 335,67;  576,000;    0,000;    0,000;576,00000
 335,69;  -55,000;    0,000;    0,000;-55,00000
 335,70; -396,000;    0,000;    0,000;-396,00000
 335,72;  672,000;    0,000;    0,000;672,00000
 335,74;  645,000;    0,000;    0,000;645,00000
 335,75;  -34,000;    0,000;    0,000;-34,00000
 335,77; -132,000;    0,000;    0,000;-132,00000
 335,79;  404,000;    0,000;    0,000;404,00000
 335,80;  345,000;    0,000;    0,000;345,00000
 335,82; -175,000;    0,000;    0,000;-175,00000
 335,84; -604,000;    0,000;    0,000;-604,00000
 335,86;  176,000;    0,000;    0,000;176,00000
 335,87;  491,000;    0,000;    0,000;491,00000
 335,89;  171,000;    0,000;    0,000;171,00000
 335,91; -120,000;    0,000;    0,000;-120,00000
 335,92;  838,000;    0,000;    0,000;838,00000
 335,94;  597,000;    0,000;    0,000;597,00000
 335,96;  252,000;    0,000;    0,000;252,00000
 335,97;   87,000;    0,000;    0,000;87,00000
 335,99; 1218,000;    0,000;    0,000;1218,00000
 336,01;  302,000;    0,000;    0,000;302,00000
 336,02;  387,000;    0,000;    0,000;387,00000
 336,04; -411,000;    0,000;    0,000;-411,00000
 336,06; 1144,000;    0,000;    0,000;1144,00000
 336,07;  844,000;    0,000;    0,000;844,00000
 336,09;  125,000;    0,000;    0,000;125,00000
 336,11; -361,000;    0,000;    0,000;-361,00000
 336,12;  631,000;    0,000;    0,000;631,00000
 336,14;  719,000;    0,000;    0,000;719,00000
 336,16; -308,000;    0,000;    0,000;-308,00000
 336,17; -176,000;    0,000;    0,000;-176,00000
 336,19; 1200,000;    0,000;    0,000;1200,00000
 336,21;  567,000;    0,000;    0,000;567,00000
 336,22;    8,000;    0,000;    0,000; 8,00000
 336,24; -419,000;    0,000;    0,000;-419,00000
 336,26;  886,000;    0,000;    0,000;886,00000
 336,27;  499,000;    0,000;    0,000;499,00000
 336,29; -344,000;    0,000;    0,000;-344,00000
 336,31; -591,000;    0,000;    0,000;-591,00000
 336,33;  781,000;    0,000;    0,000;781,00000
 336,34;  486,000;    0,000;    0,000;486,00000
 336,36;  426,000;    0,000;    0,000;426,00000
 336,38;  -43,000;    0,000;    0,000;-43,00000
 336,39;  369,000;    0,000;    0,000;369,00000
 336,41;  320,000;    0,000;    0,000;320,00000
 336,43;   19,000;    0,000;    0,000;19,00000
 336,44; -144,000;    0,000;    0,000;-144,00000
 336,46;  657,000;    0,000;    0,000;657,00000
 336,48;  904,000;    0,000;    0,000;904,00000
 336,49;  318,000;    0,000;    0,000;318,00000
 336,51; -239,000;    0,000;    0,000;-239,00000
 336,53;  834,000;    0,000;    0,000;834,00000
 336,54;  188,000;    0,000;    0,000;188,00000
 336,56;  162,000;    0,000;    0,000;162,00000
 336,58; -576,000;    0,000;    0,000;-576,00000
 336,59;  933,000;    0,000;    0,000;933,00000
 336,61;  970,000;    0,000;    0,000;970,00000
 336,63;  -68,000;    0,000;    0,000;-68,00000
 336,64; -448,000;    0,000;    0,000;-448,00000
 336,66;  632,000;    0,000;    0,000;632,00000
 336,68;  472,000;    0,000;    0,000;472,00000
 336,69; -117,000;    0,000;    0,000;-117,00000
 336,71;  137,000;    0,000;    0,000;137,00000
 336,73; 1342,000;    0,000;    0,000;1342,00000
 336,74;  339,000;    0,000;    0,000;339,00000
 336,76;   94,000;    0,000;    0,000;94,00000
 336,78; -223,000;    0,000;    0,000;-223,00000
 336,79;  631,000;    0,000;    0,000;631,00000
 336,81;  314,000;    0,000;    0,000;314,00000
 336,83; -652,000;    0,000;    0,000;-652,00000
 336,84; -396,000;    0,000;    0,000;-396,00000
 336,86;  763,000;    0,000;    0,000;763,00000
 336,88;  855,000;    0,000;    0,000;855,00000
 336,89; -605,000;    0,000;    0,000;-605,00000
 336,91; -195,000;    0,000;    0,000;-195,00000
 336,93;  878,000;    0,000;    0,000;878,00000
 336,94; 1673,000;    0,000;    0,000;1673,00000
 336,96;  224,000;    0,000;    0,000;224,00000
 336,98; -437,000;    0,000;    0,000;-437,00000
 336,99; 1041,000;    0,000;    0,000;1041,00000
 337,01;  918,000;    0,000;    0,000;918,00000
 337,03; -257,000;    0,000;    0,000;-257,00000
 337,04; -589,000;    0,000;    0,000;-589,00000
 337,06;  994,000;    0,000;    0,000;994,00000
 337,08; 1030,000;    0,000;    0,000;1030,00000
 337,09;   43,000;    0,000;    0,000;43,00000
 337,11; -617,000;    0,000;    0,000;-617,00000
 337,13;  774,000;    0,000;    0,000;774,00000
 337,14; 1136,000;    0,000;    0,000;1136,00000
 337,16;  113,000;    0,000;    0,000;113,00000
 337,18;  135,000;    0,000;    0,000;135,00000
 337,19;  696,000;    0,000;    0,000;696,00000
 337,21;  640,000;    0,000;    0,000;640,00000
 337,23;  952,000;    0,000;    0,000;952,00000
 337,24; -408,000;    0,000;    0,000;-408,00000
 337,26;  826,000;    0,000;    0,000;826,00000
 337,27; 1005,000;    0,000;    0,000;1005,00000
 337,29; -344,000;    0,000;    0,000;-344,00000
 337,31;  249,000;    0,000;    0,000;249,00000
 337,32;  880,000;    0,000;    0,000;880,00000
 337,34;  490,000;    0,000;    0,000;490,00000
 337,36; -219,000;    0,000;    0,000;-219,00000
 337,37; -407,000;    0,000;    0,000;-407,00000
 337,39; 1673,000;    0,000;    0,000;1673,00000
 337,41;  345,000;    0,000;    0,000;345,00000
 337,42; -439,000;    0,000;    0,000;-439,00000
 337,44; -374,000;    0,000;    0,000;-374,00000
 337,46;  705,000;    0,000;    0,000;705,00000
 337,47;  778,000;    0,000;    0,000;778,00000
 337,49; -215,000;    0,000;    0,000;-215,00000
 337,51; -512,000;    0,000;    0,000;-512,00000
 337,52;  923,000;    0,000;    0,000;923,00000
 337,54;  238,000;    0,000;    0,000;238,00000
 337,56;  -95,000;    0,000;    0,000;-95,00000
 337,57; -214,000;    0,000;    0,000;-214,00000
 337,59;  762,000;    0,000;    0,000;762,00000
 337,61;  531,000;    0,000;    0,000;531,00000
 337,62; -357,000;    0,000;    0,000;-357,00000
 337,64; -710,000;    0,000;    0,000;-710,00000
 337,66;  729,000;    0,000;    0,000;729,00000
 337,67; 1192,000;    0,000;    0,000;1192,00000
 337,69;  104,000;    0,000;    0,000;104,00000
 337,71; -239,000;    0,000;    0,000;-239,00000
 337,72; 1557,000;    0,000;    0,000;1557,00000
 337,74;  726,000;    0,000;    0,000;726,00000
 337,75;  -66,000;    0,000;    0,000;-66,00000
 337,77; -557,000;    0,000;    0,000;-557,00000
 337,79;  761,000;    0,000;    0,000;761,00000
 337,80; 1572,000;    0,000;    0,000;1572,00000
 337,82;  -63,000;    0,000;    0,000;-63,00000
 337,84; -316,000;    0,000;    0,000;-316,00000
 337,85;  958,000;    0,000;    0,000;958,00000
 337,87;  726,000;    0,000;    0,000;726,00000
 337,89; -504,000;    0,000;    0,000;-504,00000
 337,90; -656,000;    0,000;    0,000;-656,00000
 337,92; 1132,000;    0,000;    0,000;1132,00000
 337,94;  490,000;    0,000;    0,000;490,00000
 337,95; -187,000;    0,000;    0,000;-187,00000
 337,97; -559,000;    0,000;    0,000;-559,00000
 337,99;  852,000;    0,000;    0,000;852,00000
 338,00;  539,000;    0,000;    0,000;539,00000
 338,02; -209,000;    0,000;    0,000;-209,00000
 338,04; -188,000;    0,000;    0,000;-188,00000
 338,05;  879,000;    0,000;    0,000;879,00000
 338,07; 1059,000;    0,000;    0,000;1059,00000
 338,08; -168,000;    0,000;    0,000;-168,00000
 338,10; -147,000;    0,000;    0,000;-147,00000
 338,12;  922,000;    0,000;    0,000;922,00000
 338,13; 1825,000;    0,000;    0,000;1825,00000
 338,15; -430,000;    0,000;    0,000;-430,00000
 338,17; -375,000;    0,000;    0,000;-375,00000
 338,18;  759,000;    0,000;    0,000;759,00000
 338,20;  286,000;    0,000;    0,000;286,00000
 338,22; -281,000;    0,000;    0,000;-281,00000
 338,23; -344,000;    0,000;    0,000;-344,00000
 338,25;  773,000;    0,000;    0,000;773,00000
 338,27;  421,000;    0,000;    0,000;421,00000
 338,28; -213,000;    0,000;    0,000;-213,00000
 338,30; -351,000;    0,000;    0,000;-351,00000
 338,31;  916,000;    0,000;    0,000;916,00000
 338,33;  574,000;    0,000;    0,000;574,00000
 338,35;   -5,000;    0,000;    0,000;-5,00000
 338,36; -603,000;    0,000;    0,000;-603,00000
 338,38;  879,000;    0,000;    0,000;879,00000
 338,40;  479,000;    0,000;    0,000;479,00000
 338,41;   45,000;    0,000;    0,000;45,00000
 338,43; -489,000;    0,000;    0,000;-489,00000
 338,45;  881,000;    0,000;    0,000;881,00000
 338,46;  641,000;    0,000;    0,000;641,00000
 338,48;  -44,000;    0,000;    0,000;-44,00000
 338,50; -834,000;    0,000;    0,000;-834,00000
 338,51; 1078,000;    0,000;    0,000;1078,00000
 338,53;  640,000;    0,000;    0,000;640,00000
 338,54;  315,000;    0,000;    0,000;315,00000
 338,56; -473,000;    0,000;    0,000;-473,00000
 338,58;  827,000;    0,000;    0,000;827,00000
 338,59;  836,000;    0,000;    0,000;836,00000
 338,61; -110,000;    0,000;    0,000;-110,00000
 338,63; -319,000;    0,000;    0,000;-319,00000
 338,64;  958,000;    0,000;    0,000;958,00000
 338,66;  759,000;    0,000;    0,000;759,00000
 338,68;  172,000;    0,000;    0,000;172,00000
 338,69; -422,000;    0,000;    0,000;-422,00000
 338,71;  451,000;    0,000;    0,000;451,00000
 338,72;  234,000;    0,000;    0,000;234,00000
 338,74; -508,000;    0,000;    0,000;-508,00000
 338,76; -469,000;    0,000;    0,000;-469,00000
 338,77;  809,000;    0,000;    0,000;809,00000
 338,79;  527,000;    0,000;    0,000;527,00000
 338,81;  767,000;    0,000;    0,000;767,00000
 338,82; -633,000;    0,000;    0,000;-633,00000
 338,84;  802,000;    0,000;    0,000;802,00000
 338,86;  728,000;    0,000;    0,000;728,00000
 338,87;  -86,000;    0,000;    0,000;-86,00000
 338,89; -769,000;    0,000;    0,000;-769,00000
 338,90;  900,000;    0,000;    0,000;900,00000
 338,92;  654,000;    0,000;    0,000;654,00000
 338,94; -642,000;    0,000;    0,000;-642,00000
 338,95; -220,000;    0,000;    0,000;-220,00000
 338,97; 1152,000;    0,000;    0,000;1152,00000
 338,99; 1077,000;    0,000;    0,000;1077,00000
 339,00; -137,000;    0,000;    0,000;-137,00000
 339,02;  202,000;    0,000;    0,000;202,00000
 339,04; 1312,000;    0,000;    0,000;1312,00000
 339,05;  663,000;    0,000;    0,000;663,00000
 339,07; -291,000;    0,000;    0,000;-291,00000
 339,08;  449,000;    0,000;    0,000;449,00000
 339,10; 1771,000;    0,000;    0,000;1771,00000
 339,12;  647,000;    0,000;    0,000;647,00000
 339,13;  438,000;    0,000;    0,000;438,00000
 339,15; -656,000;    0,000;    0,000;-656,00000
 339,17; 1109,000;    0,000;    0,000;1109,00000
 339,18;  541,000;    0,000;    0,000;541,00000
 339,20;   56,000;    0,000;    0,000;56,00000
 339,21; -840,000;    0,000;    0,000;-840,00000
 339,23; 1436,000;    0,000;    0,000;1436,00000
 339,25;  662,000;    0,000;    0,000;662,00000
 339,26;  653,000;    0,000;    0,000;653,00000
 339,28;  511,000;    0,000;    0,000;511,00000
 339,30;  968,000;    0,000;    0,000;968,00000
 339,31;  695,000;    0,000;    0,000;695,00000
 339,33; -505,000;    0,000;    0,000;-505,00000
 339,34; -476,000;    0,000;    0,000;-476,00000
 339,36; 1190,000;    0,000;    0,000;1190,00000
 339,38;  549,000;    0,000;    0,000;549,00000
 339,39; -120,000;    0,000;    0,000;-120,00000
 339,41;   67,000;    0,000;    0,000;67,00000
 339,43;  826,000;    0,000;    0,000;826,00000
 339,44;  958,000;    0,000;    0,000;958,00000
 339,46; -519,000;    0,000;    0,000;-519,00000
 339,47; -483,000;    0,000;    0,000;-483,00000
 339,49;  822,000;    0,000;    0,000;822,00000
 339,51;  448,000;    0,000;    0,000;448,00000
 339,52; -333,000;    0,000;    0,000;-333,00000
 339,54; -648,000;    0,000;    0,000;-648,00000
 339,56;  725,000;    0,000;    0,000;725,00000
 339,57;  822,000;    0,000;    0,000;822,00000
 339,59; -344,000;    0,000;    0,000;-344,00000
 339,60; -351,000;    0,000;    0,000;-351,00000
 339,62; 1288,000;    0,000;    0,000;1288,00000
 339,64;  708,000;    0,000;    0,000;708,00000
 339,65; -297,000;    0,000;    0,000;-297,00000
 339,67;  -11,000;    0,000;    0,000;-11,00000
 339,69; 1113,000;    0,000;    0,000;1113,00000
 339,70;  807,000;    0,000;    0,000;807,00000
 339,72; -196,000;    0,000;    0,000;-196,00000
 339,73; -411,000;    0,000;    0,000;-411,00000
 339,75;  669,000;    0,000;    0,000;669,00000
 339,77;  658,000;    0,000;    0,000;658,00000
 339,78; -374,000;    0,000;    0,000;-374,00000
 339,80; -271,000;    0,000;    0,000;-271,00000
 339,82;  855,000;    0,000;    0,000;855,00000
 339,83; 1844,000;    0,000;    0,000;1844,00000
 339,85;  -23,000;    0,000;    0,000;-23,00000
 339,86; -486,000;    0,000;    0,000;-486,00000
 339,88; 1303,000;    0,000;    0,000;1303,00000
 339,90; 1673,000;    0,000;    0,000;1673,00000
 339,91; -576,000;    0,000;    0,000;-576,00000
 339,93; -878,000;    0,000;    0,000;-878,00000
 339,95;  961,000;    0,000;    0,000;961,00000
 339,96;  943,000;    0,000;    0,000;943,00000
 339,98; -541,000;    0,000;    0,000;-541,00000
 339,99; -709,000;    0,000;    0,000;-709,00000
 340,01; 1299,000;    0,000;    0,000;1299,00000
 340,03;  630,000;    0,000;    0,000;630,00000
 340,04;   32,000;    0,000;    0,000;32,00000
 340,06; -389,000;    0,000;    0,000;-389,00000
 340,07;  884,000;    0,000;    0,000;884,00000
 340,09;  699,000;    0,000;    0,000;699,00000
 340,11; -169,000;    0,000;    0,000;-169,00000
 340,12; -395,000;    0,000;    0,000;-395,00000
 340,14; 1466,000;    0,000;    0,000;1466,00000
 340,16;  679,000;    0,000;    0,000;679,00000
 340,17; -424,000;    0,000;    0,000;-424,00000
 340,19; -507,000;    0,000;    0,000;-507,00000
 340,20; 1605,000;    0,000;    0,000;1605,00000
 340,22;  422,000;    0,000;    0,000;422,00000
 340,24;  358,000;    0,000;    0,000;358,00000
 340,25; -757,000;    0,000;    0,000;-757,00000
 340,27; 1175,000;    0,000;    0,000;1175,00000
 340,28;  910,000;    0,000;    0,000;910,00000
 340,30; -127,000;    0,000;    0,000;-127,00000
 340,32;   84,000;    0,000;    0,000;84,00000
 340,33; 1276,000;    0,000;    0,000;1276,00000
 340,35;  881,000;    0,000;    0,000;881,00000
 340,36;  457,000;    0,000;    0,000;457,00000
 340,38; -610,000;    0,000;    0,000;-610,00000
 340,40;  806,000;    0,000;    0,000;806,00000
 340,41; 1559,000;    0,000;    0,000;1559,00000
 340,43; -301,000;    0,000;    0,000;-301,00000
 340,45; -240,000;    0,000;    0,000;-240,00000
 340,46; 1441,000;    0,000;    0,000;1441,00000
 340,48;  742,000;    0,000;    0,000;742,00000
 340,49; -492,000;    0,000;    0,000;-492,00000
 340,51; -721,000;    0,000;    0,000;-721,00000
 340,53; 1088,000;    0,000;    0,000;1088,00000
 340,54;  756,000;    0,000;    0,000;756,00000
 340,56; -357,000;    0,000;    0,000;-357,00000
 340,57; -539,000;    0,000;    0,000;-539,00000
 340,59; 1082,000;    0,000;    0,000;1082,00000
 340,61;  857,000;    0,000;    0,000;857,00000
 340,62;  148,000;    0,000;    0,000;148,00000
 340,64; -493,000;    0,000;    0,000;-493,00000
 340,65;  843,000;    0,000;    0,000;843,00000
 340,67;  404,000;    0,000;    0,000;404,00000
 340,69; -557,000;    0,000;    0,000;-557,00000
 340,70; -357,000;    0,000;    0,000;-357,00000
 340,72; 1004,000;    0,000;    0,000;1004,00000
 340,73; 1397,000;    0,000;    0,000;1397,00000
 340,75;   66,000;    0,000;    0,000;66,00000
 340,77; -751,000;    0,000;    0,000;-751,00000
 340,78; 1096,000;    0,000;    0,000;1096,00000
 340,80;  757,000;    0,000;    0,000;757,00000
 340,81;  -61,000;    0,000;    0,000;-61,00000
 340,83; -250,000;    0,000;    0,000;-250,00000
 340,85; 2125,000;    0,000;    0,000;2125,00000
 340,86;  825,000;    0,000;    0,000;825,00000
 340,88; -517,000;    0,000;    0,000;-517,00000
 340,89; -537,000;    0,000;    0,000;-537,00000
 340,91; 1185,000;    0,000;    0,000;1185,00000
 340,93;  870,000;    0,000;    0,000;870,00000
 340,94; -685,000;    0,000;    0,000;-685,00000
 340,96; -179,000;    0,000;    0,000;-179,00000
 340,97; 1016,000;    0,000;    0,000;1016,00000
 340,99;  830,000;    0,000;    0,000;830,00000
 341,01; -585,000;    0,000;    0,000;-585,00000
 341,02; -473,000;    0,000;    0,000;-473,00000
 341,04; 1113,000;    0,000;    0,000;1113,00000
 341,05; 1135,000;    0,000;    0,000;1135,00000
 341,07; -575,000;    0,000;    0,000;-575,00000
 341,09;  169,000;    0,000;    0,000;169,00000
 341,10;  856,000;    0,000;    0,000;856,00000
 341,12;  650,000;    0,000;    0,000;650,00000
 341,13;   92,000;    0,000;    0,000;92,00000
 341,15; -352,000;    0,000;    0,000;-352,00000
 341,17; 1303,000;    0,000;    0,000;1303,00000
 341,18;  809,000;    0,000;    0,000;809,00000
 341,20; -867,000;    0,000;    0,000;-867,00000
 341,21; -411,000;    0,000;    0,000;-411,00000
 341,23; 1228,000;    0,000;    0,000;1228,00000
 341,25; 1013,000;    0,000;    0,000;1013,00000
 341,26; -259,000;    0,000;    0,000;-259,00000
 341,28; -430,000;    0,000;    0,000;-430,00000
 341,29;  981,000;    0,000;    0,000;981,00000
 341,31;  875,000;    0,000;    0,000;875,00000
 341,33; -325,000;    0,000;    0,000;-325,00000
 341,34; -482,000;    0,000;    0,000;-482,00000
 341,36; 1283,000;    0,000;    0,000;1283,00000
 341,37;  656,000;    0,000;    0,000;656,00000
 341,39; -342,000;    0,000;    0,000;-342,00000
 341,41; -261,000;    0,000;    0,000;-261,00000
 341,42;  871,000;    0,000;    0,000;871,00000
 341,44;  859,000;    0,000;    0,000;859,00000
 341,45; -646,000;    0,000;    0,000;-646,00000
 341,47; -756,000;    0,000;    0,000;-756,00000
 341,49;  792,000;    0,000;    0,000;792,00000
 341,50;  691,000;    0,000;    0,000;691,00000
 341,52;  256,000;    0,000;    0,000;256,00000
 341,53;  310,000;    0,000;    0,000;310,00000
 341,55; 1072,000;    0,000;    0,000;1072,00000
 341,57; 1013,000;    0,000;    0,000;1013,00000
 341,58;  -16,000;    0,000;    0,000;-16,00000
 341,60; -493,000;    0,000;    0,000;-493,00000
 341,61;  869,000;    0,000;    0,000;869,00000
 341,63; 1005,000;    0,000;    0,000;1005,00000
 341,64; -667,000;    0,000;    0,000;-667,00000
 341,66; -607,000;    0,000;    0,000;-607,00000
 341,68;  540,000;    0,000;    0,000;540,00000
 341,69;  464,000;    0,000;    0,000;464,00000
 341,71; -463,000;    0,000;    0,000;-463,00000
 341,72; -240,000;    0,000;    0,000;-240,00000
 341,74;  837,000;    0,000;    0,000;837,00000
 341,76;  927,000;    0,000;    0,000;927,00000
 341,77; -158,000;    0,000;    0,000;-158,00000
 341,79; -634,000;    0,000;    0,000;-634,00000
 341,80; 1128,000;    0,000;    0,000;1128,00000
 341,82;  564,000;    0,000;    0,000;564,00000
 341,84; -370,000;    0,000;    0,000;-370,00000
 341,85;   26,000;    0,000;    0,000;26,00000
 341,87;  989,000;    0,000;    0,000;989,00000
 341,88;  949,000;    0,000;    0,000;949,00000
 341,90; -170,000;    0,000;    0,000;-170,00000
 341,91; -602,000;    0,000;    0,000;-602,00000
 341,93; 1135,000;    0,000;    0,000;1135,00000
 341,95;  952,000;    0,000;    0,000;952,00000
 341,96;    5,000;    0,000;    0,000; 5,00000
 341,98; -802,000;    0,000;    0,000;-802,00000
 341,99; 1623,000;    0,000;    0,000;1623,00000
 342,01;  747,000;    0,000;    0,000;747,00000
 342,03;   68,000;    0,000;    0,000;68,00000
 342,04; -274,000;    0,000;    0,000;-274,00000
 342,06; 1185,000;    0,000;    0,000;1185,00000
 342,07; 1643,000;    0,000;    0,000;1643,00000
 342,09; -172,000;    0,000;    0,000;-172,00000
 342,10; -175,000;    0,000;    0,000;-175,00000
 342,12; 1227,000;    0,000;    0,000;1227,00000
 342,14;  616,000;    0,000;    0,000;616,00000
 342,15; -554,000;    0,000;    0,000;-554,00000
 342,17; -607,000;    0,000;    0,000;-607,00000
 342,18; 1265,000;    0,000;    0,000;1265,00000
 342,20;  969,000;    0,000;    0,000;969,00000
 342,22; -440,000;    0,000;    0,000;-440,00000
 342,23; -300,000;    0,000;    0,000;-300,00000
 342,25;  733,000;    0,000;    0,000;733,00000
 342,26; 1260,000;    0,000;    0,000;1260,00000
 342,28; -229,000;    0,000;    0,000;-229,00000
 342,29; -715,000;    0,000;    0,000;-715,00000
 342,31; 1474,000;    0,000;    0,000;1474,00000
 342,33;  434,000;    0,000;    0,000;434,00000
 342,34; -354,000;    0,000;    0,000;-354,00000
 342,36; -939,000;    0,000;    0,000;-939,00000
 342,37;  751,000;    0,000;    0,000;751,00000
 342,39;  590,000;    0,000;    0,000;590,00000
 342,40;  307,000;    0,000;    0,000;307,00000
 342,42; -708,000;    0,000;    0,000;-708,00000
 342,44;  583,000;    0,000;    0,000;583,00000
 342,45; 1591,000;    0,000;    0,000;1591,00000
 342,47; -231,000;    0,000;    0,000;-231,00000
 342,48; -905,000;    0,000;    0,000;-905,00000
 342,50;  734,000;    0,000;    0,000;734,00000
 342,52;  917,000;    0,000;    0,000;917,00000
 342,53; -280,000;    0,000;    0,000;-280,00000
 342,55; -948,000;    0,000;    0,000;-948,00000
 342,56; 1132,000;    0,000;    0,000;1132,00000
 342,58;  686,000;    0,000;    0,000;686,00000
 342,59; -379,000;    0,000;    0,000;-379,00000
 342,61; -989,000;    0,000;    0,000;-989,00000
 342,63; 1558,000;    0,000;    0,000;1558,00000
 342,64;  923,000;    0,000;    0,000;923,00000
 342,66; -481,000;    0,000;    0,000;-481,00000
 342,67; -710,000;    0,000;    0,000;-710,00000
 342,69;  686,000;    0,000;    0,000;686,00000
 342,70;  960,000;    0,000;    0,000;960,00000
 342,72; -480,000;    0,000;    0,000;-480,00000
 342,74; -477,000;    0,000;    0,000;-477,00000
 342,75; 1495,000;    0,000;    0,000;1495,00000
 342,77; 1308,000;    0,000;    0,000;1308,00000
 342,78; -228,000;    0,000;    0,000;-228,00000
 342,80; -621,000;    0,000;    0,000;-621,00000
 342,81;  808,000;    0,000;    0,000;808,00000
 342,83;  687,000;    0,000;    0,000;687,00000
 342,85; -532,000;    0,000;    0,000;-532,00000
 342,86; -489,000;    0,000;    0,000;-489,00000
 342,88; 1114,000;    0,000;    0,000;1114,00000
 342,89; 1045,000;    0,000;    0,000;1045,00000
 342,91; -312,000;    0,000;    0,000;-312,00000
 342,92; -515,000;    0,000;    0,000;-515,00000
 342,94; 1164,000;    0,000;    0,000;1164,00000
 342,96; 1052,000;    0,000;    0,000;1052,00000
 342,97; -379,000;    0,000;    0,000;-379,00000
 342,99;  129,000;    0,000;    0,000;129,00000
 343,00; 1157,000;    0,000;    0,000;1157,00000
 343,02; 1271,000;    0,000;    0,000;1271,00000
 343,03; -424,000;    0,000;    0,000;-424,00000
 343,05;  424,000;    0,000;    0,000;424,00000
 343,06; 1035,000;    0,000;    0,000;1035,00000
 343,08; 1026,000;    0,000;    0,000;1026,00000
 343,10; -210,000;    0,000;    0,000;-210,00000
 343,11; -541,000;    0,000;    0,000;-541,00000
 343,13; 1550,000;    0,000;    0,000;1550,00000
 343,14;  727,000;    0,000;    0,000;727,00000
 343,16; -595,000;    0,000;    0,000;-595,00000
 343,17; -488,000;    0,000;    0,000;-488,00000
 343,19; 1250,000;    0,000;    0,000;1250,00000
 343,21;  880,000;    0,000;    0,000;880,00000
 343,22;  184,000;    0,000;    0,000;184,00000
 343,24; -682,000;    0,000;    0,000;-682,00000
 343,25; 1350,000;    0,000;    0,000;1350,00000
 343,27; 1028,000;    0,000;    0,000;1028,00000
 343,28;  -44,000;    0,000;    0,000;-44,00000
 343,30; -649,000;    0,000;    0,000;-649,00000
 343,32;  993,000;    0,000;    0,000;993,00000
 343,33;  598,000;    0,000;    0,000;598,00000
 343,35; -436,000;    0,000;    0,000;-436,00000
 343,36; -631,000;    0,000;    0,000;-631,00000
 343,38; 1028,000;    0,000;    0,000;1028,00000
 343,39;  846,000;    0,000;    0,000;846,00000
 343,41; -235,000;    0,000;    0,000;-235,00000
 343,42;-1023,000;    0,000;    0,000;-1023,00000
 343,44; 1083,000;    0,000;    0,000;1083,00000
 343,46;  719,000;    0,000;    0,000;719,00000
 343,47; -219,000;    0,000;    0,000;-219,00000
 343,49; -642,000;    0,000;    0,000;-642,00000
 343,50; 1251,000;    0,000;    0,000;1251,00000
 343,52;  957,000;    0,000;    0,000;957,00000
 343,53; -392,000;    0,000;    0,000;-392,00000
 343,55; -990,000;    0,000;    0,000;-990,00000
 343,56; 1069,000;    0,000;    0,000;1069,00000
 343,58;  635,000;    0,000;    0,000;635,00000
 343,60; -465,000;    0,000;    0,000;-465,00000
 343,61; -813,000;    0,000;    0,000;-813,00000
 343,63;  751,000;    0,000;    0,000;751,00000
 343,64;  462,000;    0,000;    0,000;462,00000
 343,66; -524,000;    0,000;    0,000;-524,00000
 343,67; -759,000;    0,000;    0,000;-759,00000
 343,69; 1094,000;    0,000;    0,000;1094,00000
 343,70;  699,000;    0,000;    0,000;699,00000
 343,72; -333,000;    0,000;    0,000;-333,00000
 343,74; -547,000;    0,000;    0,000;-547,00000
 343,75;  817,000;    0,000;    0,000;817,00000
 343,77;  650,000;    0,000;    0,000;650,00000
 343,78; -316,000;    0,000;    0,000;-316,00000
 343,80; -775,000;    0,000;    0,000;-775,00000
 343,81;  909,000;    0,000;    0,000;909,00000
 343,83; 1238,000;    0,000;    0,000;1238,00000
 343,84;  309,000;    0,000;    0,000;309,00000
 343,86; -681,000;    0,000;    0,000;-681,00000
 343,88; 1111,000;    0,000;    0,000;1111,00000
 343,89;  718,000;    0,000;    0,000;718,00000
 343,91; -479,000;    0,000;    0,000;-479,00000
 343,92; -504,000;    0,000;    0,000;-504,00000
 343,94; 1244,000;    0,000;    0,000;1244,00000
 343,95;  693,000;    0,000;    0,000;693,00000
 343,97;  117,000;    0,000;    0,000;117,00000
 343,98; -478,000;    0,000;    0,000;-478,00000
 344,00;  878,000;    0,000;    0,000;878,00000
 344,02; 1061,000;    0,000;    0,000;1061,00000
 344,03; -391,000;    0,000;    0,000;-391,00000
 344,05; -456,000;    0,000;    0,000;-456,00000
 344,06; 1215,000;    0,000;    0,000;1215,00000
 344,08;  400,000;    0,000;    0,000;400,00000
 344,09; -377,000;    0,000;    0,000;-377,00000
 344,11; -826,000;    0,000;    0,000;-826,00000
 344,12;  676,000;    0,000;    0,000;676,00000
 344,14; 1007,000;    0,000;    0,000;1007,00000
 344,15; -202,000;    0,000;    0,000;-202,00000
 344,17; -483,000;    0,000;    0,000;-483,00000
 344,19; 1197,000;    0,000;    0,000;1197,00000
 344,20; 1045,000;    0,000;    0,000;1045,00000
 344,22; -572,000;    0,000;    0,000;-572,00000
 344,23; -532,000;    0,000;    0,000;-532,00000
 344,25; 1247,000;    0,000;    0,000;1247,00000
 344,26; 2200,000;    0,000;    0,000;2200,00000
 344,28;  -49,000;    0,000;    0,000;-49,00000
 344,29; -597,000;    0,000;    0,000;-597,00000
 344,31; 1076,000;    0,000;    0,000;1076,00000
 344,32;  917,000;    0,000;    0,000;917,00000
 344,34; -602,000;    0,000;    0,000;-602,00000
 344,36; -697,000;    0,000;    0,000;-697,00000
 344,37;  846,000;    0,000;    0,000;846,00000
 344,39;  533,000;    0,000;    0,000;533,00000
 344,40; -469,000;    0,000;    0,000;-469,00000
 344,42; -198,000;    0,000;    0,000;-198,00000
 344,43;  890,000;    0,000;    0,000;890,00000
 344,45;  874,000;    0,000;    0,000;874,00000
 344,46;  -71,000;    0,000;    0,000;-71,00000
 344,48; -109,000;    0,000;    0,000;-109,00000
 344,49; 1093,000;    0,000;    0,000;1093,00000
 344,51; 1106,000;    0,000;    0,000;1106,00000
 344,53; -373,000;    0,000;    0,000;-373,00000
 344,54; -424,000;    0,000;    0,000;-424,00000
 344,56;  852,000;    0,000;    0,000;852,00000
 344,57;  866,000;    0,000;    0,000;866,00000
 344,59; -201,000;    0,000;    0,000;-201,00000
 344,60; -613,000;    0,000;    0,000;-613,00000
 344,62;  618,000;    0,000;    0,000;618,00000
 344,63; 1255,000;    0,000;    0,000;1255,00000
 344,65; -299,000;    0,000;    0,000;-299,00000
 344,66; -635,000;    0,000;    0,000;-635,00000
 344,68;  872,000;    0,000;    0,000;872,00000
 344,69;  804,000;    0,000;    0,000;804,00000
 344,71; -346,000;    0,000;    0,000;-346,00000
 344,73; -608,000;    0,000;    0,000;-608,00000
 344,74;  965,000;    0,000;    0,000;965,00000
 344,76; 1055,000;    0,000;    0,000;1055,00000
 344,77; -522,000;    0,000;    0,000;-522,00000
 344,79; -206,000;    0,000;    0,000;-206,00000
 344,80;  910,000;    0,000;    0,000;910,00000
 344,82; 1030,000;    0,000;    0,000;1030,00000
 344,83; -630,000;    0,000;    0,000;-630,00000
 344,85; -196,000;    0,000;    0,000;-196,00000
 344,86; 1285,000;    0,000;    0,000;1285,00000
 344,88;  666,000;    0,000;    0,000;666,00000
 344,89; -529,000;    0,000;    0,000;-529,00000
 344,91; -178,000;    0,000;    0,000;-178,00000
 344,93; 1034,000;    0,000;    0,000;1034,00000
 344,94;  428,000;    0,000;    0,000;428,00000
 344,96; -371,000;    0,000;    0,000;-371,00000
 344,97; -537,000;    0,000;    0,000;-537,00000
 344,99;  767,000;    0,000;    0,000;767,00000
 345,00; 1096,000;    0,000;    0,000;1096,00000
 345,02; -486,000;    0,000;    0,000;-486,00000
 345,03; -686,000;    0,000;    0,000;-686,00000
 345,05;  802,000;    0,000;    0,000;802,00000
 345,06; 1119,000;    0,000;    0,000;1119,00000
 345,08; -356,000;    0,000;    0,000;-356,00000
 345,09; -630,000;    0,000;    0,000;-630,00000
 345,11;  847,000;    0,000;    0,000;847,00000
 345,12;  756,000;    0,000;    0,000;756,00000
 345,14;  196,000;    0,000;    0,000;196,00000
 345,16; -457,000;    0,000;    0,000;-457,00000
 345,17;  789,000;    0,000;    0,000;789,00000
 345,19;  929,000;    0,000;    0,000;929,00000
 345,20; -530,000;    0,000;    0,000;-530,00000
 345,22; -293,000;    0,000;    0,000;-293,00000
 345,23;  946,000;    0,000;    0,000;946,00000
 345,25;  976,000;    0,000;    0,000;976,00000
 345,26; -499,000;    0,000;    0,000;-499,00000
 345,28; -664,000;    0,000;    0,000;-664,00000
 345,29; 1210,000;    0,000;    0,000;1210,00000
 345,31; 1062,000;    0,000;    0,000;1062,00000
 345,32; -342,000;    0,000;    0,000;-342,00000
 345,34; -734,000;    0,000;    0,000;-734,00000
 345,35; 1024,000;    0,000;    0,000;1024,00000
 345,37;  510,000;    0,000;    0,000;510,00000
 345,38; -389,000;    0,000;    0,000;-389,00000
 345,40; -314,000;    0,000;    0,000;-314,00000
 345,42; 1223,000;    0,000;    0,000;1223,00000
 345,43;  427,000;    0,000;    0,000;427,00000
 345,45; -251,000;    0,000;    0,000;-251,00000
 345,46; -697,000;    0,000;    0,000;-697,00000
 345,48; 1059,000;    0,000;    0,000;1059,00000
 345,49; 1071,000;    0,000;    0,000;1071,00000
 345,51;   88,000;    0,000;    0,000;88,00000
 345,52; -682,000;    0,000;    0,000;-682,00000
 345,54; 1084,000;    0,000;    0,000;1084,00000
 345,55;  753,000;    0,000;    0,000;753,00000
 345,57; -582,000;    0,000;    0,000;-582,00000
 345,58; -719,000;    0,000;    0,000;-719,00000
 345,60; 1395,000;    0,000;    0,000;1395,00000
 345,61; 1345,000;    0,000;    0,000;1345,00000
 345,63; -321,000;    0,000;    0,000;-321,00000
 345,64; -108,000;    0,000;    0,000;-108,00000
 345,66; 1091,000;    0,000;    0,000;1091,00000
 345,67;  951,000;    0,000;    0,000;951,00000
 345,69; -249,000;    0,000;    0,000;-249,00000
 345,70; -261,000;    0,000;    0,000;-261,00000
 345,72;  928,000;    0,000;    0,000;928,00000
 345,74;  521,000;    0,000;    0,000;521,00000
 345,75; -512,000;    0,000;    0,000;-512,00000
 345,77; -497,000;    0,000;    0,000;-497,00000
 345,78;  974,000;    0,000;    0,000;974,00000
 345,80; 1295,000;    0,000;    0,000;1295,00000
 345,81; -415,000;    0,000;    0,000;-415,00000
 345,83; -591,000;    0,000;    0,000;-591,00000
 345,84;  958,000;    0,000;    0,000;958,00000
 345,86;  794,000;    0,000;    0,000;794,00000
 345,87; -670,000;    0,000;    0,000;-670,00000
 345,89; -766,000;    0,000;    0,000;-766,00000
 345,90;  993,000;    0,000;    0,000;993,00000
 345,92;  906,000;    0,000;    0,000;906,00000
 345,93; -277,000;    0,000;    0,000;-277,00000
 345,95; -208,000;    0,000;    0,000;-208,00000
 345,96;  715,000;    0,000;    0,000;715,00000
 345,98;  808,000;    0,000;    0,000;808,00000
 345,99; -233,000;    0,000;    0,000;-233,00000
 346,01; -301,000;    0,000;    0,000;-301,00000
 346,02;  514,000;    0,000;    0,000;514,00000
 346,04;  479,000;    0,000;    0,000;479,00000
 346,05; -322,000;    0,000;    0,000;-322,00000
 346,07; -423,000;    0,000;    0,000;-423,00000
 346,08;  974,000;    0,000;    0,000;974,00000
 346,10;  744,000;    0,000;    0,000;744,00000
 346,11;  -34,000;    0,000;    0,000;-34,00000
 346,13;-1012,000;    0,000;    0,000;-1012,00000
 346,14; 1171,000;    0,000;    0,000;1171,00000
 346,16;  956,000;    0,000;    0,000;956,00000
 346,17;   20,000;    0,000;    0,000;20,00000
 346,19; -736,000;    0,000;    0,000;-736,00000
 346,21;  950,000;    0,000;    0,000;950,00000
 346,22;  603,000;    0,000;    0,000;603,00000
 346,24; -154,000;    0,000;    0,000;-154,00000
 346,25; -565,000;    0,000;    0,000;-565,00000
 346,27;  952,000;    0,000;    0,000;952,00000
 346,28;  482,000;    0,000;    0,000;482,00000
 346,30; -568,000;    0,000;    0,000;-568,00000
 346,31; -808,000;    0,000;    0,000;-808,00000
 346,33;  818,000;    0,000;    0,000;818,00000
 346,34;  951,000;    0,000;    0,000;951,00000
 346,36; -465,000;    0,000;    0,000;-465,00000
 346,37; -701,000;    0,000;    0,000;-701,00000
 346,39; 1320,000;    0,000;    0,000;1320,00000
 346,40;  848,000;    0,000;    0,000;848,00000
 346,42; -268,000;    0,000;    0,000;-268,00000
 346,43; -231,000;    0,000;    0,000;-231,00000
 346,45;  690,000;    0,000;    0,000;690,00000
 346,46; 1005,000;    0,000;    0,000;1005,00000
 346,48; -714,000;    0,000;    0,000;-714,00000
 346,49; -675,000;    0,000;    0,000;-675,00000
 346,51; 1417,000;    0,000;    0,000;1417,00000
 346,52; 1116,000;    0,000;    0,000;1116,00000
 346,54; -797,000;    0,000;    0,000;-797,00000
 346,55; -644,000;    0,000;    0,000;-644,00000
 346,57; 1343,000;    0,000;    0,000;1343,00000
 346,58; 1250,000;    0,000;    0,000;1250,00000
 346,60; -158,000;    0,000;    0,000;-158,00000
 346,61; -529,000;    0,000;    0,000;-529,00000
 346,63; 1022,000;    0,000;    0,000;1022,00000
 346,64;  663,000;    0,000;    0,000;663,00000
 346,66;  205,000;    0,000;    0,000;205,00000
 346,67; -168,000;    0,000;    0,000;-168,00000
 346,69; 1150,000;    0,000;    0,000;1150,00000
 346,70;  766,000;    0,000;    0,000;766,00000
 346,72;  -70,000;    0,000;    0,000;-70,00000
 346,73; -140,000;    0,000;    0,000;-140,00000
 346,75; 1058,000;    0,000;    0,000;1058,00000
 346,76; 1378,000;    0,000;    0,000;1378,00000
 346,78;  271,000;    0,000;    0,000;271,00000
 346,79; -614,000;    0,000;    0,000;-614,00000
 346,81; 1286,000;    0,000;    0,000;1286,00000
 346,82; 1256,000;    0,000;    0,000;1256,00000
 346,84; -383,000;    0,000;    0,000;-383,00000
 346,85; -183,000;    0,000;    0,000;-183,00000
 346,87; 1247,000;    0,000;    0,000;1247,00000
 346,88;  642,000;    0,000;    0,000;642,00000
 346,90; -502,000;    0,000;    0,000;-502,00000
 346,91; -750,000;    0,000;    0,000;-750,00000
 346,93; 1431,000;    0,000;    0,000;1431,00000
 346,94;  703,000;    0,000;    0,000;703,00000
 346,96; -703,000;    0,000;    0,000;-703,00000
 346,97; -986,000;    0,000;    0,000;-986,00000
 346,99; 1199,000;    0,000;    0,000;1199,00000
 347,00; 1057,000;    0,000;    0,000;1057,00000
 347,02; -340,000;    0,000;    0,000;-340,00000
 347,03; -676,000;    0,000;    0,000;-676,00000
 347,05; 1603,000;    0,000;    0,000;1603,00000
 347,06; 1037,000;    0,000;    0,000;1037,00000
 347,08;   97,000;    0,000;    0,000;97,00000
 347,09; -393,000;    0,000;    0,000;-393,00000
 347,11; 1250,000;    0,000;    0,000;1250,00000
 347,12;  727,000;    0,000;    0,000;727,00000
 347,14; -259,000;    0,000;    0,000;-259,00000
 347,15; -268,000;    0,000;    0,000;-268,00000
 347,17; 1162,000;    0,000;    0,000;1162,00000
 347,18;  988,000;    0,000;    0,000;988,00000
 347,20; -654,000;    0,000;    0,000;-654,00000
 347,21; -496,000;    0,000;    0,000;-496,00000
 347,23; 1282,000;    0,000;    0,000;1282,00000
 347,24;  814,000;    0,000;    0,000;814,00000
 347,26; -236,000;    0,000;    0,000;-236,00000
 347,27; -682,000;    0,000;    0,000;-682,00000
 347,29;  470,000;    0,000;    0,000;470,00000
 347,30;  650,000;    0,000;    0,000;650,00000
 347,32; -347,000;    0,000;    0,000;-347,00000
 347,33; -869,000;    0,000;    0,000;-869,00000
 347,35;  647,000;    0,000;    0,000;647,00000
 347,36;  496,000;    0,000;    0,000;496,00000
 347,38; -445,000;    0,000;    0,000;-445,00000
 347,39; -622,000;    0,000;    0,000;-622,00000
 347,41; 1356,000;    0,000;    0,000;1356,00000
 347,42;  631,000;    0,000;    0,000;631,00000
 347,44; -538,000;    0,000;    0,000;-538,00000
 347,45; -743,000;    0,000;    0,000;-743,00000
 347,47;  755,000;    0,000;    0,000;755,00000
 347,48; 1169,000;    0,000;    0,000;1169,00000
 347,50; -536,000;    0,000;    0,000;-536,00000
 347,51; -998,000;    0,000;    0,000;-998,00000
 347,53; 1171,000;    0,000;    0,000;1171,00000
 347,54;  905,000;    0,000;    0,000;905,00000
 347,56; -493,000;    0,000;    0,000;-493,00000
 347,57; -465,000;    0,000;    0,000;-465,00000
 347,59;  829,000;    0,000;    0,000;829,00000
 347,60;  699,000;    0,000;    0,000;699,00000
 347,62; -203,000;    0,000;    0,000;-203,00000
 347,63;   89,000;    0,000;    0,000;89,00000
 347,64; 1222,000;    0,000;    0,000;1222,00000
 347,66; 1058,000;    0,000;    0,000;1058,00000
 347,67; -488,000;    0,000;    0,000;-488,00000
 347,69; -558,000;    0,000;    0,000;-558,00000
 347,70; 1025,000;    0,000;    0,000;1025,00000
 347,72; 1322,000;    0,000;    0,000;1322,00000
 347,73; -567,000;    0,000;    0,000;-567,00000
 347,75; -665,000;    0,000;    0,000;-665,00000
 347,76; 1021,000;    0,000;    0,000;1021,00000
 347,78;  962,000;    0,000;    0,000;962,00000
 347,79; -583,000;    0,000;    0,000;-583,00000
 347,81; -676,000;    0,000;    0,000;-676,00000
 347,82; 1300,000;    0,000;    0,000;1300,00000
 347,84; 1494,000;    0,000;    0,000;1494,00000
 347,85; -529,000;    0,000;    0,000;-529,00000
 347,87; -366,000;    0,000;    0,000;-366,00000
 347,88;  816,000;    0,000;    0,000;816,00000
 347,90;  715,000;    0,000;    0,000;715,00000
 347,91; -119,000;    0,000;    0,000;-119,00000
 347,93; -409,000;    0,000;    0,000;-409,00000
 347,94;  963,000;    0,000;    0,000;963,00000
 347,96; 1435,000;    0,000;    0,000;1435,00000
 347,97; -172,000;    0,000;    0,000;-172,00000
 347,99; -720,000;    0,000;    0,000;-720,00000
 348,00; 1280,000;    0,000;    0,000;1280,00000
 348,02;  603,000;    0,000;    0,000;603,00000
 348,03; -586,000;    0,000;    0,000;-586,00000
 348,05; -691,000;    0,000;    0,000;-691,00000
 348,06;  974,000;    0,000;    0,000;974,00000
 348,07;  889,000;    0,000;    0,000;889,00000
 348,09; -558,000;    0,000;    0,000;-558,00000
 348,10; -596,000;    0,000;    0,000;-596,00000
 348,12;  555,000;    0,000;    0,000;555,00000
 348,13; 1098,000;    0,000;    0,000;1098,00000
 348,15; -713,000;    0,000;    0,000;-713,00000
 348,16;  -76,000;    0,000;    0,000;-76,00000
 348,18;  742,000;    0,000;    0,000;742,00000
 348,19;  801,000;    0,000;    0,000;801,00000
 348,21; -117,000;    0,000;    0,000;-117,00000
 348,22; -501,000;    0,000;    0,000;-501,00000
 348,24;  906,000;    0,000;    0,000;906,00000
 348,25; 1304,000;    0,000;    0,000;1304,00000
 348,27; -855,000;    0,000;    0,000;-855,00000
 348,28;   73,000;    0,000;    0,000;73,00000
 348,30; 1146,000;    0,000;    0,000;1146,00000
 348,31;  828,000;    0,000;    0,000;828,00000
 348,33; -630,000;    0,000;    0,000;-630,00000
 348,34; -320,000;    0,000;    0,000;-320,00000
 348,36; 1523,000;    0,000;    0,000;1523,00000
 348,37; 1110,000;    0,000;    0,000;1110,00000
 348,38; -264,000;    0,000;    0,000;-264,00000
 348,40; -668,000;    0,000;    0,000;-668,00000
 348,41; 1018,000;    0,000;    0,000;1018,00000
 348,43;  765,000;    0,000;    0,000;765,00000
 348,44; -457,000;    0,000;    0,000;-457,00000
 348,46; -465,000;    0,000;    0,000;-465,00000
 348,47;  898,000;    0,000;    0,000;898,00000
 348,49;  912,000;    0,000;    0,000;912,00000
 348,50; -147,000;    0,000;    0,000;-147,00000
 348,52; -759,000;    0,000;    0,000;-759,00000
 348,53;  830,000;    0,000;    0,000;830,00000
 348,55;  734,000;    0,000;    0,000;734,00000
 348,56; -322,000;    0,000;    0,000;-322,00000
 348,58;   16,000;    0,000;    0,000;16,00000
 348,59;  979,000;    0,000;    0,000;979,00000
 348,61; 1020,000;    0,000;    0,000;1020,00000
 348,62; -681,000;    0,000;    0,000;-681,00000
 348,63; -510,000;    0,000;    0,000;-510,00000
 348,65; 1562,000;    0,000;    0,000;1562,00000
 348,66;  969,000;    0,000;    0,000;969,00000
 348,68; -546,000;    0,000;    0,000;-546,00000
 348,69; -337,000;    0,000;    0,000;-337,00000
 348,71;  677,000;    0,000;    0,000;677,00000
 348,72;  576,000;    0,000;    0,000;576,00000
 348,74; -535,000;    0,000;    0,000;-535,00000
 348,75; -874,000;    0,000;    0,000;-874,00000
 348,77;  902,000;    0,000;    0,000;902,00000
 348,78; 1006,000;    0,000;    0,000;1006,00000
 348,80; -558,000;    0,000;    0,000;-558,00000
 348,81; -952,000;    0,000;    0,000;-952,00000
 348,83; 1207,000;    0,000;    0,000;1207,00000
 348,84;  904,000;    0,000;    0,000;904,00000
 348,85; -549,000;    0,000;    0,000;-549,00000
 348,87; -368,000;    0,000;    0,000;-368,00000
 348,88; 1054,000;    0,000;    0,000;1054,00000
 348,90;  977,000;    0,000;    0,000;977,00000
 348,91; -368,000;    0,000;    0,000;-368,00000
 348,93; -183,000;    0,000;    0,000;-183,00000
 348,94; 1182,000;    0,000;    0,000;1182,00000
 348,96; 1694,000;    0,000;    0,000;1694,00000
 348,97; -301,000;    0,000;    0,000;-301,00000
 348,99; -823,000;    0,000;    0,000;-823,00000
 349,00; 1181,000;    0,000;    0,000;1181,00000
 349,02; 1406,000;    0,000;    0,000;1406,00000
 349,03; -643,000;    0,000;    0,000;-643,00000
 349,05;-1127,000;    0,000;    0,000;-1127,00000
 349,06; 1007,000;    0,000;    0,000;1007,00000
 349,07;  604,000;    0,000;    0,000;604,00000
 349,09; -273,000;    0,000;    0,000;-273,00000
 349,10;   44,000;    0,000;    0,000;44,00000
 349,12;  957,000;    0,000;    0,000;957,00000
 349,13;  513,000;    0,000;    0,000;513,00000
 349,15; -464,000;    0,000;    0,000;-464,00000
 349,16; -815,000;    0,000;    0,000;-815,00000
 349,18; 1006,000;    0,000;    0,000;1006,00000
 349,19;  804,000;    0,000;    0,000;804,00000
 349,21; -813,000;    0,000;    0,000;-813,00000
 349,22; -731,000;    0,000;    0,000;-731,00000
 349,23; 1381,000;    0,000;    0,000;1381,00000
 349,25;  692,000;    0,000;    0,000;692,00000
 349,26;    2,000;    0,000;    0,000; 2,00000
 349,28; -515,000;    0,000;    0,000;-515,00000
 349,29;  843,000;    0,000;    0,000;843,00000
 349,31;  464,000;    0,000;    0,000;464,00000
 349,32; -250,000;    0,000;    0,000;-250,00000
 349,34; -930,000;    0,000;    0,000;-930,00000
 349,35;  641,000;    0,000;    0,000;641,00000
 349,37; 1595,000;    0,000;    0,000;1595,00000
 349,38;  160,000;    0,000;    0,000;160,00000
 349,40; -734,000;    0,000;    0,000;-734,00000
 349,41;  823,000;    0,000;    0,000;823,00000
 349,42;  708,000;    0,000;    0,000;708,00000
 349,44; -552,000;    0,000;    0,000;-552,00000
 349,45; -943,000;    0,000;    0,000;-943,00000
 349,47; 1281,000;    0,000;    0,000;1281,00000
 349,48; 1067,000;    0,000;    0,000;1067,00000
 349,50; -134,000;    0,000;    0,000;-134,00000
 349,51; -813,000;    0,000;    0,000;-813,00000
 349,53;  879,000;    0,000;    0,000;879,00000
 349,54;  720,000;    0,000;    0,000;720,00000
 349,55; -540,000;    0,000;    0,000;-540,00000
 349,57; -816,000;    0,000;    0,000;-816,00000
 349,58;  970,000;    0,000;    0,000;970,00000
 349,60; 1099,000;    0,000;    0,000;1099,00000
 349,61; -310,000;    0,000;    0,000;-310,00000
 349,63; -335,000;    0,000;    0,000;-335,00000
 349,64;  838,000;    0,000;    0,000;838,00000
 349,66;  442,000;    0,000;    0,000;442,00000
 349,67; -288,000;    0,000;    0,000;-288,00000
 349,69; -242,000;    0,000;    0,000;-242,00000
 349,70;  607,000;    0,000;    0,000;607,00000
 349,71;  824,000;    0,000;    0,000;824,00000
 349,73; -635,000;    0,000;    0,000;-635,00000
 349,74; -669,000;    0,000;    0,000;-669,00000
 349,76; 1059,000;    0,000;    0,000;1059,00000
 349,77;  841,000;    0,000;    0,000;841,00000
 349,79; -396,000;    0,000;    0,000;-396,00000
 349,80; -760,000;    0,000;    0,000;-760,00000
 349,82;  886,000;    0,000;    0,000;886,00000
 349,83;  721,000;    0,000;    0,000;721,00000
 349,84; -795,000;    0,000;    0,000;-795,00000
 349,86; -535,000;    0,000;    0,000;-535,00000
 349,87;  942,000;    0,000;    0,000;942,00000
 349,89; 1192,000;    0,000;    0,000;1192,00000
 349,90; -309,000;    0,000;    0,000;-309,00000
 349,92; -800,000;    0,000;    0,000;-800,00000
 349,93; 1507,000;    0,000;    0,000;1507,00000
 349,95; 1144,000;    0,000;    0,000;1144,00000
 349,96; -584,000;    0,000;    0,000;-584,00000
 349,97; -489,000;    0,000;    0,000;-489,00000
 349,99;  676,000;    0,000;    0,000;676,00000
 350,00;  547,000;    0,000;    0,000;547,00000
 350,02; -500,000;    0,000;    0,000;-500,00000
 350,03; -653,000;    0,000;    0,000;-653,00000
 350,05;  590,000;    0,000;    0,000;590,00000
 350,06;  683,000;    0,000;    0,000;683,00000
 350,08; -354,000;    0,000;    0,000;-354,00000
 350,09; -769,000;    0,000;    0,000;-769,00000
 350,10; 1318,000;    0,000;    0,000;1318,00000
 350,12;  756,000;    0,000;    0,000;756,00000
 350,13; -626,000;    0,000;    0,000;-626,00000
 350,15; -782,000;    0,000;    0,000;-782,00000
 350,16;  676,000;    0,000;    0,000;676,00000
 350,18; 1672,000;    0,000;    0,000;1672,00000
 350,19; -614,000;    0,000;    0,000;-614,00000
 350,21; -162,000;    0,000;    0,000;-162,00000
 350,22;  735,000;    0,000;    0,000;735,00000
 350,23;  793,000;    0,000;    0,000;793,00000
 350,25;  -78,000;    0,000;    0,000;-78,00000
 350,26; -900,000;    0,000;    0,000;-900,00000
 350,28;  689,000;    0,000;    0,000;689,00000
 350,29;  915,000;    0,000;    0,000;915,00000
 350,31; -863,000;    0,000;    0,000;-863,00000
 350,32; -792,000;    0,000;    0,000;-792,00000
 350,33;  798,000;    0,000;    0,000;798,00000
 350,35;  516,000;    0,000;    0,000;516,00000
 350,36; -420,000;    0,000;    0,000;-420,00000
 350,38; -292,000;    0,000;    0,000;-292,00000
 350,39;  260,000;    0,000;    0,000;260,00000
 350,41;  902,000;    0,000;    0,000;902,00000
 350,42;   92,000;    0,000;    0,000;92,00000
 350,44; -551,000;    0,000;    0,000;-551,00000
 350,45;  736,000;    0,000;    0,000;736,00000
 350,46;  647,000;    0,000;    0,000;647,00000
 350,48; -531,000;    0,000;    0,000;-531,00000
 350,49; -811,000;    0,000;    0,000;-811,00000
 350,51;  981,000;    0,000;    0,000;981,00000
 350,52;  737,000;    0,000;    0,000;737,00000
 350,54; -486,000;    0,000;    0,000;-486,00000
 350,55; -384,000;    0,000;    0,000;-384,00000
 350,56;  761,000;    0,000;    0,000;761,00000
 350,58;  268,000;    0,000;    0,000;268,00000
 350,59; -451,000;    0,000;    0,000;-451,00000
 350,61; -934,000;    0,000;    0,000;-934,00000
 350,62;  872,000;    0,000;    0,000;872,00000
 350,64;  494,000;    0,000;    0,000;494,00000
 350,65; -156,000;    0,000;    0,000;-156,00000
 350,66; -482,000;    0,000;    0,000;-482,00000
 350,68;  733,000;    0,000;    0,000;733,00000
 350,69;  849,000;    0,000;    0,000;849,00000
 350,71; -639,000;    0,000;    0,000;-639,00000
 350,72; -827,000;    0,000;    0,000;-827,00000
 350,74;  633,000;    0,000;    0,000;633,00000
 350,75;  746,000;    0,000;    0,000;746,00000
 350,76; -361,000;    0,000;    0,000;-361,00000
 350,78;  308,000;    0,000;    0,000;308,00000
 350,79;  969,000;    0,000;    0,000;969,00000
 350,81;  418,000;    0,000;    0,000;418,00000
 350,82; -369,000;    0,000;    0,000;-369,00000
 350,84; -229,000;    0,000;    0,000;-229,00000
 350,85;  586,000;    0,000;    0,000;586,00000
 350,86;  234,000;    0,000;    0,000;234,00000
 350,88; -667,000;    0,000;    0,000;-667,00000
 350,89;  249,000;    0,000;    0,000;249,00000
 350,91;  916,000;    0,000;    0,000;916,00000
 350,92;  192,000;    0,000;    0,000;192,00000
 350,94; -699,000;    0,000;    0,000;-699,00000
 350,95; -904,000;    0,000;    0,000;-904,00000
 350,96;  607,000;    0,000;    0,000;607,00000
 350,98;  985,000;    0,000;    0,000;985,00000
 350,99; -454,000;    0,000;    0,000;-454,00000
 351,01; -842,000;    0,000;    0,000;-842,00000
 351,02;  898,000;    0,000;    0,000;898,00000
 351,04;  283,000;    0,000;    0,000;283,00000
 351,05; -735,000;    0,000;    0,000;-735,00000
 351,06; -628,000;    0,000;    0,000;-628,00000
 351,08;  979,000;    0,000;    0,000;979,00000
 351,09;  706,000;    0,000;    0,000;706,00000
 351,11; -478,000;    0,000;    0,000;-478,00000
 351,12; -278,000;    0,000;    0,000;-278,00000
 351,14;  546,000;    0,000;    0,000;546,00000
 351,15;  749,000;    0,000;    0,000;749,00000
 351,16; -643,000;    0,000;    0,000;-643,00000
 351,18; -742,000;    0,000;    0,000;-742,00000
 351,19; 1003,000;    0,000;    0,000;1003,00000
 351,21;  740,000;    0,000;    0,000;740,00000
 351,22; -209,000;    0,000;    0,000;-209,00000
 351,23; -690,000;    0,000;    0,000;-690,00000
 351,25;  665,000;    0,000;    0,000;665,00000
 351,26;  719,000;    0,000;    0,000;719,00000
 351,28; -402,000;    0,000;    0,000;-402,00000
 351,29; -337,000;    0,000;    0,000;-337,00000
 351,31;  863,000;    0,000;    0,000;863,00000
 351,32;  426,000;    0,000;    0,000;426,00000
 351,33; -210,000;    0,000;    0,000;-210,00000
 351,35; -538,000;    0,000;    0,000;-538,00000
 351,36;  810,000;    0,000;    0,000;810,00000
 351,38;  661,000;    0,000;    0,000;661,00000
 351,39; -567,000;    0,000;    0,000;-567,00000
 351,41; -380,000;    0,000;    0,000;-380,00000
 351,42;  619,000;    0,000;    0,000;619,00000
 351,43;  850,000;    0,000;    0,000;850,00000
 351,45;  153,000;    0,000;    0,000;153,00000
 351,46; -708,000;    0,000;    0,000;-708,00000
 351,48; 1058,000;    0,000;    0,000;1058,00000
 351,49; 1211,000;    0,000;    0,000;1211,00000
 351,50; -389,000;    0,000;    0,000;-389,00000
 351,52; -742,000;    0,000;    0,000;-742,00000
 351,53; 1276,000;    0,000;    0,000;1276,00000
 351,55;  566,000;    0,000;    0,000;566,00000
 351,56; -504,000;    0,000;    0,000;-504,00000
 351,57; -513,000;    0,000;    0,000;-513,00000
 351,59;  697,000;    0,000;    0,000;697,00000
 351,60;  569,000;    0,000;    0,000;569,00000
 351,62; -323,000;    0,000;    0,000;-323,00000
 351,63; -625,000;    0,000;    0,000;-625,00000
 351,65;  720,000;    0,000;    0,000;720,00000
 351,66;  546,000;    0,000;    0,000;546,00000
 351,67;   93,000;    0,000;    0,000;93,00000
 351,69; -600,000;    0,000;    0,000;-600,00000
 351,70;  682,000;    0,000;    0,000;682,00000
 351,72; 2153,000;    0,000;    0,000;2153,00000
 351,73;  291,000;    0,000;    0,000;291,00000
 351,74; -596,000;    0,000;    0,000;-596,00000
 351,76;  648,000;    0,000;    0,000;648,00000
 351,77;  404,000;    0,000;    0,000;404,00000
 351,79; -131,000;    0,000;    0,000;-131,00000
 351,80; -751,000;    0,000;    0,000;-751,00000
 351,81;  506,000;    0,000;    0,000;506,00000
 351,83;  523,000;    0,000;    0,000;523,00000
 351,84; -678,000;    0,000;    0,000;-678,00000
 351,86;  -66,000;    0,000;    0,000;-66,00000
 351,87;  703,000;    0,000;    0,000;703,00000
 351,89;  676,000;    0,000;    0,000;676,00000
 351,90; -126,000;    0,000;    0,000;-126,00000
 351,91; -642,000;    0,000;    0,000;-642,00000
 351,93;  531,000;    0,000;    0,000;531,00000
 351,94;  525,000;    0,000;    0,000;525,00000
 351,96; -148,000;    0,000;    0,000;-148,00000
 351,97; -268,000;    0,000;    0,000;-268,00000
 351,98;  819,000;    0,000;    0,000;819,00000
 352,00;  419,000;    0,000;    0,000;419,00000
 352,01; -687,000;    0,000;    0,000;-687,00000
 352,03; -517,000;    0,000;    0,000;-517,00000
 352,04;  694,000;    0,000;    0,000;694,00000
 352,05;  797,000;    0,000;    0,000;797,00000
 352,07; -292,000;    0,000;    0,000;-292,00000
 352,08; -800,000;    0,000;    0,000;-800,00000
 352,10;  460,000;    0,000;    0,000;460,00000
 352,11;  618,000;    0,000;    0,000;618,00000
 352,12;  -61,000;    0,000;    0,000;-61,00000
 352,14; -539,000;    0,000;    0,000;-539,00000
 352,15;  626,000;    0,000;    0,000;626,00000
 352,17;  499,000;    0,000;    0,000;499,00000
 352,18;  361,000;    0,000;    0,000;361,00000
 352,19; -551,000;    0,000;    0,000;-551,00000
 352,21;  645,000;    0,000;    0,000;645,00000
 352,22;  654,000;    0,000;    0,000;654,00000
 352,24;   94,000;    0,000;    0,000;94,00000
 352,25; -196,000;    0,000;    0,000;-196,00000
 352,26;  559,000;    0,000;    0,000;559,00000
 352,28;  600,000;    0,000;    0,000;600,00000
 352,29;  -89,000;    0,000;    0,000;-89,00000
 352,31; -584,000;    0,000;    0,000;-584,00000
 352,32;  568,000;    0,000;    0,000;568,00000
 352,33;  467,000;    0,000;    0,000;467,00000
 352,35; -352,000;    0,000;    0,000;-352,00000
 352,36; -409,000;    0,000;    0,000;-409,00000
 352,38; 1630,000;    0,000;    0,000;1630,00000
 352,39;  389,000;    0,000;    0,000;389,00000
 352,40; -284,000;    0,000;    0,000;-284,00000
 352,42; -711,000;    0,000;    0,000;-711,00000
 352,43;  814,000;    0,000;    0,000;814,00000
 352,45;  482,000;    0,000;    0,000;482,00000
 352,46; -319,000;    0,000;    0,000;-319,00000
 352,47; -393,000;    0,000;    0,000;-393,00000
 352,49; 1049,000;    0,000;    0,000;1049,00000
 352,50;  280,000;    0,000;    0,000;280,00000
 352,52; -465,000;    0,000;    0,000;-465,00000
 352,53; -704,000;    0,000;    0,000;-704,00000
 352,54;  874,000;    0,000;    0,000;874,00000
 352,56;  650,000;    0,000;    0,000;650,00000
 352,57; -136,000;    0,000;    0,000;-136,00000
 352,59;  477,000;    0,000;    0,000;477,00000
 352,60;  710,000;    0,000;    0,000;710,00000
 352,61;  204,000;    0,000;    0,000;204,00000
 352,63; -511,000;    0,000;    0,000;-511,00000
 352,64; -477,000;    0,000;    0,000;-477,00000
 352,66; 1333,000;    0,000;    0,000;1333,00000
 352,67;  640,000;    0,000;    0,000;640,00000
 352,68; -424,000;    0,000;    0,000;-424,00000
 352,70; -702,000;    0,000;    0,000;-702,00000
 352,71;  990,000;    0,000;    0,000;990,00000
 352,72;  888,000;    0,000;    0,000;888,00000
 352,74;  214,000;    0,000;    0,000;214,00000
 352,75; -419,000;    0,000;    0,000;-419,00000
 352,77;  857,000;    0,000;    0,000;857,00000
 352,78;  506,000;    0,000;    0,000;506,00000
 352,79; -366,000;    0,000;    0,000;-366,00000
 352,81; -454,000;    0,000;    0,000;-454,00000
 352,82;  521,000;    0,000;    0,000;521,00000
 352,84;  222,000;    0,000;    0,000;222,00000
 352,85; -437,000;    0,000;    0,000;-437,00000
 352,86; -842,000;    0,000;    0,000;-842,00000
 352,88; 1325,000;    0,000;    0,000;1325,00000
 352,89;  568,000;    0,000;    0,000;568,00000
 352,91;  101,000;    0,000;    0,000;101,00000
 352,92;   83,000;    0,000;    0,000;83,00000
 352,93;  381,000;    0,000;    0,000;381,00000
 352,95;  266,000;    0,000;    0,000;266,00000
 352,96; -368,000;    0,000;    0,000;-368,00000
 352,97; -658,000;    0,000;    0,000;-658,00000
 352,99;  794,000;    0,000;    0,000;794,00000
 353,00;  212,000;    0,000;    0,000;212,00000
 353,02; -197,000;    0,000;    0,000;-197,00000
 353,03; -589,000;    0,000;    0,000;-589,00000
 353,04;  517,000;    0,000;    0,000;517,00000
 353,06;  340,000;    0,000;    0,000;340,00000
 353,07; -508,000;    0,000;    0,000;-508,00000
 353,09; -709,000;    0,000;    0,000;-709,00000
 353,10;  778,000;    0,000;    0,000;778,00000
 353,11;  608,000;    0,000;    0,000;608,00000
 353,13; -314,000;    0,000;    0,000;-314,00000
 353,14; -153,000;    0,000;    0,000;-153,00000
 353,15;  476,000;    0,000;    0,000;476,00000
 353,17;  620,000;    0,000;    0,000;620,00000
 353,18; -550,000;    0,000;    0,000;-550,00000
 353,20; -384,000;    0,000;    0,000;-384,00000
 353,21;  658,000;    0,000;    0,000;658,00000
 353,22;  745,000;    0,000;    0,000;745,00000
 353,24;  -44,000;    0,000;    0,000;-44,00000
 353,25;  136,000;    0,000;    0,000;136,00000
 353,27;  582,000;    0,000;    0,000;582,00000
 353,28;  636,000;    0,000;    0,000;636,00000
 353,29; -339,000;    0,000;    0,000;-339,00000
 353,31; -529,000;    0,000;    0,000;-529,00000
 353,32;  860,000;    0,000;    0,000;860,00000
 353,33;  774,000;    0,000;    0,000;774,00000
 353,35;   -8,000;    0,000;    0,000;-8,00000
 353,36; -280,000;    0,000;    0,000;-280,00000
 353,38;  526,000;    0,000;    0,000;526,00000
 353,39;  777,000;    0,000;    0,000;777,00000
 353,40; -109,000;    0,000;    0,000;-109,00000
 353,42; -889,000;    0,000;    0,000;-889,00000
 353,43;  724,000;    0,000;    0,000;724,00000
 353,44;  310,000;    0,000;    0,000;310,00000
 353,46;   61,000;    0,000;    0,000;61,00000
 353,47; -143,000;    0,000;    0,000;-143,00000
 353,49;  744,000;    0,000;    0,000;744,00000
 353,50;  759,000;    0,000;    0,000;759,00000
 353,51; -417,000;    0,000;    0,000;-417,00000
 353,53; -552,000;    0,000;    0,000;-552,00000
 353,54;  505,000;    0,000;    0,000;505,00000
 353,55; 1349,000;    0,000;    0,000;1349,00000
 353,57;    2,000;    0,000;    0,000; 2,00000
 353,58; -373,000;    0,000;    0,000;-373,00000
 353,60; 1652,000;    0,000;    0,000;1652,00000
 353,61; 1034,000;    0,000;    0,000;1034,00000
 353,62; -355,000;    0,000;    0,000;-355,00000
 353,64; -592,000;    0,000;    0,000;-592,00000
 353,65; 1634,000;    0,000;    0,000;1634,00000
 353,66;  519,000;    0,000;    0,000;519,00000
 353,68; -747,000;    0,000;    0,000;-747,00000
 353,69; -366,000;    0,000;    0,000;-366,00000
 353,71;  846,000;    0,000;    0,000;846,00000
 353,72; 1222,000;    0,000;    0,000;1222,00000
 353,73; -256,000;    0,000;    0,000;-256,00000
 353,75; -902,000;    0,000;    0,000;-902,00000
 353,76;  823,000;    0,000;    0,000;823,00000
 353,77;  526,000;    0,000;    0,000;526,00000
 353,79; -141,000;    0,000;    0,000;-141,00000
 353,80; -343,000;    0,000;    0,000;-343,00000
 353,82;  503,000;    0,000;    0,000;503,00000
 353,83;  279,000;    0,000;    0,000;279,00000
 353,84; -597,000;    0,000;    0,000;-597,00000
 353,86; -299,000;    0,000;    0,000;-299,00000
 353,87;  679,000;    0,000;    0,000;679,00000
 353,88;  829,000;    0,000;    0,000;829,00000
 353,90; -420,000;    0,000;    0,000;-420,00000
 353,91; -529,000;    0,000;    0,000;-529,00000
 353,92;  967,000;    0,000;    0,000;967,00000
 353,94;  287,000;    0,000;    0,000;287,00000
 353,95; -427,000;    0,000;    0,000;-427,00000
 353,97; -551,000;    0,000;    0,000;-551,00000
 353,98;  780,000;    0,000;    0,000;780,00000
 353,99;  807,000;    0,000;    0,000;807,00000
 354,01; -348,000;    0,000;    0,000;-348,00000
 354,02; -572,000;    0,000;    0,000;-572,00000
 354,03;  719,000;    0,000;    0,000;719,00000
 354,05;  267,000;    0,000;    0,000;267,00000
 354,06; -504,000;    0,000;    0,000;-504,00000
 354,07; -831,000;    0,000;    0,000;-831,00000
 354,09;  540,000;    0,000;    0,000;540,00000
 354,10;  621,000;    0,000;    0,000;621,00000
 354,12; -216,000;    0,000;    0,000;-216,00000
 354,13; -269,000;    0,000;    0,000;-269,00000
 354,14; 1447,000;    0,000;    0,000;1447,00000
 354,16;  745,000;    0,000;    0,000;745,00000
 354,17; -235,000;    0,000;    0,000;-235,00000
 354,18; -531,000;    0,000;    0,000;-531,00000
 354,20;  740,000;    0,000;    0,000;740,00000
 354,21;  539,000;    0,000;    0,000;539,00000
 354,22; -517,000;    0,000;    0,000;-517,00000
 354,24; -128,000;    0,000;    0,000;-128,00000
 354,25;  471,000;    0,000;    0,000;471,00000
 354,27; 1265,000;    0,000;    0,000;1265,00000
 354,28; -478,000;    0,000;    0,000;-478,00000
 354,29;   33,000;    0,000;    0,000;33,00000
 354,31; 1000,000;    0,000;    0,000;1000,00000
 354,32;  791,000;    0,000;    0,000;791,00000
 354,33; -203,000;    0,000;    0,000;-203,00000
 354,35; -308,000;    0,000;    0,000;-308,00000
 354,36; 1129,000;    0,000;    0,000;1129,00000
 354,37;  709,000;    0,000;    0,000;709,00000
 354,39; -262,000;    0,000;    0,000;-262,00000
 354,40; -118,000;    0,000;    0,000;-118,00000
 354,42;  800,000;    0,000;    0,000;800,00000
 354,43;  848,000;    0,000;    0,000;848,00000
 354,44;   39,000;    0,000;    0,000;39,00000
 354,46;  -30,000;    0,000;    0,000;-30,00000
 354,47;  935,000;    0,000;    0,000;935,00000
 354,48;  513,000;    0,000;    0,000;513,00000
 354,50; -100,000;    0,000;    0,000;-100,00000
 354,51; -519,000;    0,000;    0,000;-519,00000
 354,52;  783,000;    0,000;    0,000;783,00000
 354,54;  351,000;    0,000;    0,000;351,00000
 354,55; -363,000;    0,000;    0,000;-363,00000
 354,56; -419,000;    0,000;    0,000;-419,00000
 354,58;  563,000;    0,000;    0,000;563,00000
 354,59;  841,000;    0,000;    0,000;841,00000
 354,60;  136,000;    0,000;    0,000;136,00000
 354,62; -830,000;    0,000;    0,000;-830,00000
 354,63;  697,000;    0,000;    0,000;697,00000
 354,65;  223,000;    0,000;    0,000;223,00000
 354,66; -477,000;    0,000;    0,000;-477,00000
 354,67; -397,000;    0,000;    0,000;-397,00000
 354,69;  343,000;    0,000;    0,000;343,00000
 354,70; 1324,000;    0,000;    0,000;1324,00000
 354,71;   -8,000;    0,000;    0,000;-8,00000
 354,73; -467,000;    0,000;    0,000;-467,00000
 354,74; 1120,000;    0,000;    0,000;1120,00000
 354,75;  625,000;    0,000;    0,000;625,00000
 354,77; -362,000;    0,000;    0,000;-362,00000
 354,78; -563,000;    0,000;    0,000;-563,00000
 354,79;  815,000;    0,000;    0,000;815,00000
 354,81;  873,000;    0,000;    0,000;873,00000
 354,82; -153,000;    0,000;    0,000;-153,00000
 354,83; -564,000;    0,000;    0,000;-564,00000
 354,85;  977,000;    0,000;    0,000;977,00000
 354,86;  249,000;    0,000;    0,000;249,00000
 354,87; -479,000;    0,000;    0,000;-479,00000
 354,89; -353,000;    0,000;    0,000;-353,00000
 354,90;  540,000;    0,000;    0,000;540,00000
 354,92;  602,000;    0,000;    0,000;602,00000
 354,93; -495,000;    0,000;    0,000;-495,00000
 354,94; -568,000;    0,000;    0,000;-568,00000
 354,96;  608,000;    0,000;    0,000;608,00000
 354,97;  877,000;    0,000;    0,000;877,00000
 354,98; -615,000;    0,000;    0,000;-615,00000
 355,00; -668,000;    0,000;    0,000;-668,00000
 355,01;  742,000;    0,000;    0,000;742,00000
 355,02;  729,000;    0,000;    0,000;729,00000
 355,04;  497,000;    0,000;    0,000;497,00000
 355,05; -482,000;    0,000;    0,000;-482,00000
 355,06;  766,000;    0,000;    0,000;766,00000
 355,08;  102,000;    0,000;    0,000;102,00000
 355,09; -341,000;    0,000;    0,000;-341,00000
 355,10; -676,000;    0,000;    0,000;-676,00000
 355,12;  483,000;    0,000;    0,000;483,00000
 355,13;  268,000;    0,000;    0,000;268,00000
 355,14;  -75,000;    0,000;    0,000;-75,00000
 355,16; -539,000;    0,000;    0,000;-539,00000
 355,17;  776,000;    0,000;    0,000;776,00000
 355,18;  445,000;    0,000;    0,000;445,00000
 355,20; -380,000;    0,000;    0,000;-380,00000
 355,21; -380,000;    0,000;    0,000;-380,00000
 355,22;  843,000;    0,000;    0,000;843,00000
 355,24; 1087,000;    0,000;    0,000;1087,00000
 355,25; -357,000;    0,000;    0,000;-357,00000
 355,26; -321,000;    0,000;    0,000;-321,00000
 355,28;  480,000;    0,000;    0,000;480,00000
 355,29;  547,000;    0,000;    0,000;547,00000
 355,30; -358,000;    0,000;    0,000;-358,00000
 355,32; -209,000;    0,000;    0,000;-209,00000
 355,33;  696,000;    0,000;    0,000;696,00000
 355,34;  963,000;    0,000;    0,000;963,00000
 355,36; -330,000;    0,000;    0,000;-330,00000
 355,37; -856,000;    0,000;    0,000;-856,00000
 355,39;  524,000;    0,000;    0,000;524,00000
 355,40;  661,000;    0,000;    0,000;661,00000
 355,41; -556,000;    0,000;    0,000;-556,00000
 355,43; -540,000;    0,000;    0,000;-540,00000
 355,44; 1028,000;    0,000;    0,000;1028,00000
 355,45;  945,000;    0,000;    0,000;945,00000
 355,47;  257,000;    0,000;    0,000;257,00000
 355,48; -629,000;    0,000;    0,000;-629,00000
 355,49;  720,000;    0,000;    0,000;720,00000
 355,51; 1063,000;    0,000;    0,000;1063,00000
 355,52; -505,000;    0,000;    0,000;-505,00000
 355,53; -544,000;    0,000;    0,000;-544,00000
 355,55;  614,000;    0,000;    0,000;614,00000
 355,56;  411,000;    0,000;    0,000;411,00000
 355,57; -510,000;    0,000;    0,000;-510,00000
 355,59; -457,000;    0,000;    0,000;-457,00000
 355,60;  392,000;    0,000;    0,000;392,00000
 355,61;  616,000;    0,000;    0,000;616,00000
 355,63; -462,000;    0,000;    0,000;-462,00000
 355,64;  298,000;    0,000;    0,000;298,00000
 355,65;  416,000;    0,000;    0,000;416,00000
 355,67;  431,000;    0,000;    0,000;431,00000
 355,68;  -38,000;    0,000;    0,000;-38,00000
 355,69; -560,000;    0,000;    0,000;-560,00000
 355,71;  937,000;    0,000;    0,000;937,00000
 355,72;  303,000;    0,000;    0,000;303,00000
 355,73; -392,000;    0,000;    0,000;-392,00000
 355,75; -566,000;    0,000;    0,000;-566,00000
 355,76;  388,000;    0,000;    0,000;388,00000
 355,77;  252,000;    0,000;    0,000;252,00000
 355,78;    8,000;    0,000;    0,000; 8,00000
 355,80; -427,000;    0,000;    0,000;-427,00000
 355,81;  641,000;    0,000;    0,000;641,00000
 355,82;  503,000;    0,000;    0,000;503,00000
 355,84;  -88,000;    0,000;    0,000;-88,00000
 355,85; -489,000;    0,000;    0,000;-489,00000
 355,86; 1255,000;    0,000;    0,000;1255,00000
 355,88;  346,000;    0,000;    0,000;346,00000
 355,89; -558,000;    0,000;    0,000;-558,00000
 355,90; -619,000;    0,000;    0,000;-619,00000
 355,92;  732,000;    0,000;    0,000;732,00000
 355,93;  449,000;    0,000;    0,000;449,00000
 355,94; -395,000;    0,000;    0,000;-395,00000
 355,96; -342,000;    0,000;    0,000;-342,00000
 355,97; 1057,000;    0,000;    0,000;1057,00000
 355,98;  287,000;    0,000;    0,000;287,00000
 356,00;   23,000;    0,000;    0,000;23,00000
 356,01; -654,000;    0,000;    0,000;-654,00000
 356,02; 1029,000;    0,000;    0,000;1029,00000
 356,04;  656,000;    0,000;    0,000;656,00000
 356,05;  206,000;    0,000;    0,000;206,00000
 356,06; -153,000;    0,000;    0,000;-153,00000
 356,08;  859,000;    0,000;    0,000;859,00000
 356,09;  670,000;    0,000;    0,000;670,00000
 356,10;  104,000;    0,000;    0,000;104,00000
 356,12;  -96,000;    0,000;    0,000;-96,00000
 356,13;  704,000;    0,000;    0,000;704,00000
 356,14;  337,000;    0,000;    0,000;337,00000
 356,16;   25,000;    0,000;    0,000;25,00000
 356,17; -115,000;    0,000;    0,000;-115,00000
 356,18;  636,000;    0,000;    0,000;636,00000
 356,20; 1041,000;    0,000;    0,000;1041,00000
 356,21;  -81,000;    0,000;    0,000;-81,00000
 356,22; -720,000;    0,000;    0,000;-720,00000
 356,24;  497,000;    0,000;    0,000;497,00000
 356,25;  497,000;    0,000;    0,000;497,00000
 356,26; -311,000;    0,000;    0,000;-311,00000
 356,27; -263,000;    0,000;    0,000;-263,00000
 356,29;  452,000;    0,000;    0,000;452,00000
 356,30;  376,000;    0,000;    0,000;376,00000
 356,31; -321,000;    0,000;    0,000;-321,00000
 356,33; -500,000;    0,000;    0,000;-500,00000
 356,34; 1205,000;    0,000;    0,000;1205,00000
 356,35;  245,000;    0,000;    0,000;245,00000
 356,37; -458,000;    0,000;    0,000;-458,00000
 356,38; -349,000;    0,000;    0,000;-349,00000
 356,39;  550,000;    0,000;    0,000;550,00000
 356,41;  928,000;    0,000;    0,000;928,00000
 356,42; -513,000;    0,000;    0,000;-513,00000
 356,43; -402,000;    0,000;    0,000;-402,00000
 356,45;  420,000;    0,000;    0,000;420,00000
 356,46;  486,000;    0,000;    0,000;486,00000
 356,47; -404,000;    0,000;    0,000;-404,00000
 356,49; -405,000;    0,000;    0,000;-405,00000
 356,50;  611,000;    0,000;    0,000;611,00000
 356,51; 1183,000;    0,000;    0,000;1183,00000
 356,52;  -87,000;    0,000;    0,000;-87,00000
 356,54; -687,000;    0,000;    0,000;-687,00000
 356,55;  568,000;    0,000;    0,000;568,00000
 356,56;  459,000;    0,000;    0,000;459,00000
 356,58; -568,000;    0,000;    0,000;-568,00000
 356,59; -674,000;    0,000;    0,000;-674,00000
 356,60;  519,000;    0,000;    0,000;519,00000
 356,62;  727,000;    0,000;    0,000;727,00000
 356,63;  -20,000;    0,000;    0,000;-20,00000
 356,64; -311,000;    0,000;    0,000;-311,00000
 356,66;  779,000;    0,000;    0,000;779,00000
 356,67;   97,000;    0,000;    0,000;97,00000
 356,68; -362,000;    0,000;    0,000;-362,00000
 356,70; -343,000;    0,000;    0,000;-343,00000
 356,71;  733,000;    0,000;    0,000;733,00000
 356,72;  111,000;    0,000;    0,000;111,00000
 356,73;  -83,000;    0,000;    0,000;-83,00000
 356,75;  -90,000;    0,000;    0,000;-90,00000
 356,76;  543,000;    0,000;    0,000;543,00000
 356,77;  476,000;    0,000;    0,000;476,00000
 356,79; -228,000;    0,000;    0,000;-228,00000
 356,80; -752,000;    0,000;    0,000;-752,00000
 356,81; 1819,000;    0,000;    0,000;1819,00000
 356,83;  313,000;    0,000;    0,000;313,00000
 356,84;  -22,000;    0,000;    0,000;-22,00000
 356,85; -619,000;    0,000;    0,000;-619,00000
 356,87;  288,000;    0,000;    0,000;288,00000
 356,88;  125,000;    0,000;    0,000;125,00000
 356,89; -255,000;    0,000;    0,000;-255,00000
 356,90; -600,000;    0,000;    0,000;-600,00000
 356,92;  567,000;    0,000;    0,000;567,00000
 356,93;  305,000;    0,000;    0,000;305,00000
 356,94; -163,000;    0,000;    0,000;-163,00000
 356,96; -690,000;    0,000;    0,000;-690,00000
 356,97;  366,000;    0,000;    0,000;366,00000
 356,98;  609,000;    0,000;    0,000;609,00000
 357,00; -371,000;    0,000;    0,000;-371,00000
 357,01; -322,000;    0,000;    0,000;-322,00000
 357,02;  481,000;    0,000;    0,000;481,00000
 357,03;  620,000;    0,000;    0,000;620,00000
 357,05; -203,000;    0,000;    0,000;-203,00000
 357,06; -806,000;    0,000;    0,000;-806,00000
 357,07;  719,000;    0,000;    0,000;719,00000
 357,09;  804,000;    0,000;    0,000;804,00000
 357,10; -538,000;    0,000;    0,000;-538,00000
 357,11; -638,000;    0,000;    0,000;-638,00000
 357,13;  423,000;    0,000;    0,000;423,00000
 357,14;  633,000;    0,000;    0,000;633,00000
 357,15; -444,000;    0,000;    0,000;-444,00000
 357,16; -596,000;    0,000;    0,000;-596,00000
 357,18;  609,000;    0,000;    0,000;609,00000
 357,19;  503,000;    0,000;    0,000;503,00000
 357,20; -217,000;    0,000;    0,000;-217,00000
 357,22;  279,000;    0,000;    0,000;279,00000
 357,23;  644,000;    0,000;    0,000;644,00000
 357,24;  574,000;    0,000;    0,000;574,00000
 357,26; -326,000;    0,000;    0,000;-326,00000
 357,27; -733,000;    0,000;    0,000;-733,00000
 357,28;  790,000;    0,000;    0,000;790,00000
 357,29;   35,000;    0,000;    0,000;35,00000
 357,31; -279,000;    0,000;    0,000;-279,00000
 357,32; -710,000;    0,000;    0,000;-710,00000
 357,33; 1274,000;    0,000;    0,000;1274,00000
 357,35;  964,000;    0,000;    0,000;964,00000
 357,36; -418,000;    0,000;    0,000;-418,00000
 357,37; -518,000;    0,000;    0,000;-518,00000
 357,39;  781,000;    0,000;    0,000;781,00000
 357,40;  314,000;    0,000;    0,000;314,00000
 357,41; -102,000;    0,000;    0,000;-102,00000
 357,42; -344,000;    0,000;    0,000;-344,00000
 357,44; 1015,000;    0,000;    0,000;1015,00000
 357,45;  504,000;    0,000;    0,000;504,00000
 357,46; -647,000;    0,000;    0,000;-647,00000
 357,48; -396,000;    0,000;    0,000;-396,00000
 357,49; 1054,000;    0,000;    0,000;1054,00000
 357,50;  953,000;    0,000;    0,000;953,00000
 357,51; -574,000;    0,000;    0,000;-574,00000
 357,53; -486,000;    0,000;    0,000;-486,00000
 357,54; 1208,000;    0,000;    0,000;1208,00000
 357,55;  652,000;    0,000;    0,000;652,00000
 357,57;  -59,000;    0,000;    0,000;-59,00000
 357,58; -366,000;    0,000;    0,000;-366,00000
 357,59;  531,000;    0,000;    0,000;531,00000
 357,60; 1615,000;    0,000;    0,000;1615,00000
 357,62;  444,000;    0,000;    0,000;444,00000
 357,63; -438,000;    0,000;    0,000;-438,00000
 357,64;  861,000;    0,000;    0,000;861,00000
 357,66;  483,000;    0,000;    0,000;483,00000
 357,67; -628,000;    0,000;    0,000;-628,00000
 357,68; -529,000;    0,000;    0,000;-529,00000
 357,70;  733,000;    0,000;    0,000;733,00000
 357,71;  234,000;    0,000;    0,000;234,00000
 357,72; -580,000;    0,000;    0,000;-580,00000
 357,73; -595,000;    0,000;    0,000;-595,00000
 357,75; 1180,000;    0,000;    0,000;1180,00000
 357,76;  496,000;    0,000;    0,000;496,00000
 357,77;   55,000;    0,000;    0,000;55,00000
 357,79; -793,000;    0,000;    0,000;-793,00000
 357,80;  323,000;    0,000;    0,000;323,00000
 357,81;  359,000;    0,000;    0,000;359,00000
 357,82; -608,000;    0,000;    0,000;-608,00000
 357,84; -647,000;    0,000;    0,000;-647,00000
 357,85;  682,000;    0,000;    0,000;682,00000
 357,86;  641,000;    0,000;    0,000;641,00000
 357,88; -162,000;    0,000;    0,000;-162,00000
 357,89; -343,000;    0,000;    0,000;-343,00000
 357,90;  627,000;    0,000;    0,000;627,00000
 357,91;  694,000;    0,000;    0,000;694,00000
 357,93;  -73,000;    0,000;    0,000;-73,00000
 357,94; -508,000;    0,000;    0,000;-508,00000
 357,95;  551,000;    0,000;    0,000;551,00000
 357,97;  493,000;    0,000;    0,000;493,00000
 357,98; -153,000;    0,000;    0,000;-153,00000
 357,99;  321,000;    0,000;    0,000;321,00000
 358,00;  510,000;    0,000;    0,000;510,00000
 358,02;  819,000;    0,000;    0,000;819,00000
 358,03; -421,000;    0,000;    0,000;-421,00000
 358,04; -153,000;    0,000;    0,000;-153,00000
 358,05;  583,000;    0,000;    0,000;583,00000
 358,07;  596,000;    0,000;    0,000;596,00000
 358,08; -610,000;    0,000;    0,000;-610,00000
 358,09; -401,000;    0,000;    0,000;-401,00000
 358,11;  626,000;    0,000;    0,000;626,00000
 358,12; 1009,000;    0,000;    0,000;1009,00000
 358,13; -472,000;    0,000;    0,000;-472,00000
 358,14; -478,000;    0,000;    0,000;-478,00000
 358,16;  594,000;    0,000;    0,000;594,00000
 358,17;  604,000;    0,000;    0,000;604,00000
 358,18; -493,000;    0,000;    0,000;-493,00000
 358,20; -613,000;    0,000;    0,000;-613,00000
 358,21;  567,000;    0,000;    0,000;567,00000
 358,22; 1360,000;    0,000;    0,000;1360,00000
 358,23;   92,000;    0,000;    0,000;92,00000
 358,25; -267,000;    0,000;    0,000;-267,00000
 358,26;  854,000;    0,000;    0,000;854,00000
 358,27;  349,000;    0,000;    0,000;349,00000
 358,28; -290,000;    0,000;    0,000;-290,00000
 358,30;  -33,000;    0,000;    0,000;-33,00000
 358,31;  815,000;    0,000;    0,000;815,00000
 358,32;  234,000;    0,000;    0,000;234,00000
 358,34; -407,000;    0,000;    0,000;-407,00000
 358,35; -636,000;    0,000;    0,000;-636,00000
 358,36;  808,000;    0,000;    0,000;808,00000
 358,37;  651,000;    0,000;    0,000;651,00000
 358,39; -417,000;    0,000;    0,000;-417,00000
 358,40;  768,000;    0,000;    0,000;768,00000
 358,41; 1010,000;    0,000;    0,000;1010,00000
 358,42;  443,000;    0,000;    0,000;443,00000
 358,44; -750,000;    0,000;    0,000;-750,00000
 358,45; -433,000;    0,000;    0,000;-433,00000
 358,46;  480,000;    0,000;    0,000;480,00000
 358,48;  450,000;    0,000;    0,000;450,00000
 358,49; -226,000;    0,000;    0,000;-226,00000
 358,50; -636,000;    0,000;    0,000;-636,00000
 358,51;  462,000;    0,000;    0,000;462,00000
 358,53;  941,000;    0,000;    0,000;941,00000
 358,54; -641,000;    0,000;    0,000;-641,00000
 358,55; -538,000;    0,000;    0,000;-538,00000
 358,56;  394,000;    0,000;    0,000;394,00000
 358,58;  434,000;    0,000;    0,000;434,00000
 358,59;  231,000;    0,000;    0,000;231,00000
 358,60; -469,000;    0,000;    0,000;-469,00000
 358,62;  883,000;    0,000;    0,000;883,00000
 358,63;  668,000;    0,000;    0,000;668,00000
 358,64; -377,000;    0,000;    0,000;-377,00000
 358,65; -151,000;    0,000;    0,000;-151,00000
 358,67;  806,000;    0,000;    0,000;806,00000
 358,68;  719,000;    0,000;    0,000;719,00000
 358,69; -356,000;    0,000;    0,000;-356,00000
 358,70; -161,000;    0,000;    0,000;-161,00000
 358,72;  467,000;    0,000;    0,000;467,00000
 358,73;  494,000;    0,000;    0,000;494,00000
 358,74; -590,000;    0,000;    0,000;-590,00000
 358,75; -597,000;    0,000;    0,000;-597,00000
 358,77;  888,000;    0,000;    0,000;888,00000
 358,78;   31,000;    0,000;    0,000;31,00000
 358,79;   69,000;    0,000;    0,000;69,00000
 358,80; -472,000;    0,000;    0,000;-472,00000
 358,82;  770,000;    0,000;    0,000;770,00000
 358,83; 1127,000;    0,000;    0,000;1127,00000
 358,84;  382,000;    0,000;    0,000;382,00000
 358,86; -546,000;    0,000;    0,000;-546,00000
 358,87;  844,000;    0,000;    0,000;844,00000
 358,88;  334,000;    0,000;    0,000;334,00000
 358,89; -196,000;    0,000;    0,000;-196,00000
 358,91;  120,000;    0,000;    0,000;120,00000
 358,92; 1589,000;    0,000;    0,000;1589,00000
 358,93; 1245,000;    0,000;    0,000;1245,00000
 358,94;   -5,000;    0,000;    0,000;-5,00000
 358,96;  -29,000;    0,000;    0,000;-29,00000
 358,97; 1156,000;    0,000;    0,000;1156,00000
 358,98; 1434,000;    0,000;    0,000;1434,00000
 358,99;  497,000;    0,000;    0,000;497,00000
 359,01; -591,000;    0,000;    0,000;-591,00000
 359,02;  740,000;    0,000;    0,000;740,00000
 359,03;  319,000;    0,000;    0,000;319,00000
 359,04; -349,000;    0,000;    0,000;-349,00000
 359,06; -966,000;    0,000;    0,000;-966,00000
 359,07;  899,000;    0,000;    0,000;899,00000
 359,08;  959,000;    0,000;    0,000;959,00000
 359,09; -168,000;    0,000;    0,000;-168,00000
 359,11; -647,000;    0,000;    0,000;-647,00000
 359,12;  483,000;    0,000;    0,000;483,00000
 359,13;  263,000;    0,000;    0,000;263,00000
 359,15; -346,000;    0,000;    0,000;-346,00000
 359,16; -129,000;    0,000;    0,000;-129,00000
 359,17;  835,000;    0,000;    0,000;835,00000
 359,18; 1143,000;    0,000;    0,000;1143,00000
 359,20; -162,000;    0,000;    0,000;-162,00000
 359,21; -610,000;    0,000;    0,000;-610,00000
 359,22; 1502,000;    0,000;    0,000;1502,00000
 359,23; 1381,000;    0,000;    0,000;1381,00000
 359,25; -252,000;    0,000;    0,000;-252,00000
 359,26; -258,000;    0,000;    0,000;-258,00000
 359,27; 2915,000;    0,000;    0,000;2915,00000
 359,28;  630,000;    0,000;    0,000;630,00000
 359,30;  639,000;    0,000;    0,000;639,00000
 359,31; -391,000;    0,000;    0,000;-391,00000
 359,32; 1359,000;    0,000;    0,000;1359,00000
 359,33;  709,000;    0,000;    0,000;709,00000
 359,35;  233,000;    0,000;    0,000;233,00000
 359,36; -509,000;    0,000;    0,000;-509,00000
 359,37;  531,000;    0,000;    0,000;531,00000
 359,38;  677,000;    0,000;    0,000;677,00000
 359,40;   29,000;    0,000;    0,000;29,00000
 359,41; -240,000;    0,000;    0,000;-240,00000
 359,42;  770,000;    0,000;    0,000;770,00000
 359,43;  683,000;    0,000;    0,000;683,00000
 359,45;    1,000;    0,000;    0,000; 1,00000
 359,46; -238,000;    0,000;    0,000;-238,00000
 359,47; 1136,000;    0,000;    0,000;1136,00000
 359,48;  334,000;    0,000;    0,000;334,00000
 359,50;   12,000;    0,000;    0,000;12,00000
 359,51; -664,000;    0,000;    0,000;-664,00000
 359,52;  723,000;    0,000;    0,000;723,00000
 359,53; 1135,000;    0,000;    0,000;1135,00000
 359,55;   31,000;    0,000;    0,000;31,00000
 359,56; -247,000;    0,000;    0,000;-247,00000
 359,57;  844,000;    0,000;    0,000;844,00000
 359,58;  585,000;    0,000;    0,000;585,00000
 359,60;  -96,000;    0,000;    0,000;-96,00000
 359,61; -695,000;    0,000;    0,000;-695,00000
 359,62;  333,000;    0,000;    0,000;333,00000
 359,63;  507,000;    0,000;    0,000;507,00000
 359,65; -249,000;    0,000;    0,000;-249,00000
 359,66; -493,000;    0,000;    0,000;-493,00000
 359,67;  751,000;    0,000;    0,000;751,00000
 359,68;  860,000;    0,000;    0,000;860,00000
 359,69; -406,000;    0,000;    0,000;-406,00000
 359,71;   33,000;    0,000;    0,000;33,00000
 359,72; 1028,000;    0,000;    0,000;1028,00000
 359,73;  483,000;    0,000;    0,000;483,00000
 359,74;  158,000;    0,000;    0,000;158,00000
 359,76; -616,000;    0,000;    0,000;-616,00000
 359,77; 1487,000;    0,000;    0,000;1487,00000
 359,78;  651,000;    0,000;    0,000;651,00000
 359,79;  448,000;    0,000;    0,000;448,00000
 359,81; -456,000;    0,000;    0,000;-456,00000
 359,82;  786,000;    0,000;    0,000;786,00000
 359,83;  369,000;    0,000;    0,000;369,00000
 359,84;  -50,000;    0,000;    0,000;-50,00000
 359,86; -283,000;    0,000;    0,000;-283,00000
 359,87; 1292,000;    0,000;    0,000;1292,00000
 359,88;  370,000;    0,000;    0,000;370,00000
 359,89; -175,000;    0,000;    0,000;-175,00000
 359,91;  -84,000;    0,000;    0,000;-84,00000
 359,92;  671,000;    0,000;    0,000;671,00000
 359,93;  365,000;    0,000;    0,000;365,00000
 359,94; -327,000;    0,000;    0,000;-327,00000
 359,96; -460,000;    0,000;    0,000;-460,00000
 359,97;  576,000;    0,000;    0,000;576,00000
 359,98;  481,000;    0,000;    0,000;481,00000
 359,99; -179,000;    0,000;    0,000;-179,00000
 360,00; -622,000;    0,000;    0,000;-622,00000
 360,02;  890,000;    0,000;    0,000;890,00000
 360,03;  535,000;    0,000;    0,000;535,00000
 360,04; -379,000;    0,000;    0,000;-379,00000
 360,05; -766,000;    0,000;    0,000;-766,00000
 360,07;  733,000;    0,000;    0,000;733,00000
 360,08;  276,000;    0,000;    0,000;276,00000
 360,09;  -96,000;    0,000;    0,000;-96,00000
 360,10; -442,000;    0,000;    0,000;-442,00000
 360,12; 1007,000;    0,000;    0,000;1007,00000
 360,13;  132,000;    0,000;    0,000;132,00000
 360,14;   60,000;    0,000;    0,000;60,00000
 360,15; -173,000;    0,000;    0,000;-173,00000
 360,17;  665,000;    0,000;    0,000;665,00000
 360,18;  747,000;    0,000;    0,000;747,00000
 360,19;   68,000;    0,000;    0,000;68,00000
 360,20; -301,000;    0,000;    0,000;-301,00000
 360,21;  928,000;    0,000;    0,000;928,00000
 360,23;  632,000;    0,000;    0,000;632,00000
 360,24; -420,000;    0,000;    0,000;-420,00000
 360,25; -461,000;    0,000;    0,000;-461,00000
 360,26; 1084,000;    0,000;    0,000;1084,00000
 360,28;  937,000;    0,000;    0,000;937,00000
 360,29; -442,000;    0,000;    0,000;-442,00000
 360,30; -467,000;    0,000;    0,000;-467,00000
 360,31;  514,000;    0,000;    0,000;514,00000
 360,33;  499,000;    0,000;    0,000;499,00000
 360,34; -129,000;    0,000;    0,000;-129,00000
 360,35; -698,000;    0,000;    0,000;-698,00000
 360,36;  879,000;    0,000;    0,000;879,00000
 360,37;  544,000;    0,000;    0,000;544,00000
 360,39; -186,000;    0,000;    0,000;-186,00000
 360,40; -657,000;    0,000;    0,000;-657,00000
 360,41; 1351,000;    0,000;    0,000;1351,00000
 360,42; 1027,000;    0,000;    0,000;1027,00000
 360,44;  -76,000;    0,000;    0,000;-76,00000
 360,45; -324,000;    0,000;    0,000;-324,00000
 360,46;  862,000;    0,000;    0,000;862,00000
 360,47;  541,000;    0,000;    0,000;541,00000
 360,48; -466,000;    0,000;    0,000;-466,00000
 360,50; -513,000;    0,000;    0,000;-513,00000
 360,51;  774,000;    0,000;    0,000;774,00000
 360,52;  400,000;    0,000;    0,000;400,00000
 360,53; -247,000;    0,000;    0,000;-247,00000
 360,55;  718,000;    0,000;    0,000;718,00000
 360,56;  980,000;    0,000;    0,000;980,00000
 360,57;  598,000;    0,000;    0,000;598,00000
 360,58;  774,000;    0,000;    0,000;774,00000
 360,59; -522,000;    0,000;    0,000;-522,00000
 360,61; 2259,000;    0,000;    0,000;2259,00000
 360,62;  427,000;    0,000;    0,000;427,00000
 360,63; -167,000;    0,000;    0,000;-167,00000
 360,64; -552,000;    0,000;    0,000;-552,00000
 360,66;  821,000;    0,000;    0,000;821,00000
 360,67;  527,000;    0,000;    0,000;527,00000
 360,68; -130,000;    0,000;    0,000;-130,00000
 360,69; -590,000;    0,000;    0,000;-590,00000
 360,70; 1130,000;    0,000;    0,000;1130,00000
 360,72;  604,000;    0,000;    0,000;604,00000
 360,73;  180,000;    0,000;    0,000;180,00000
 360,74; -410,000;    0,000;    0,000;-410,00000
 360,75;  991,000;    0,000;    0,000;991,00000
 360,77;  546,000;    0,000;    0,000;546,00000
 360,78;  102,000;    0,000;    0,000;102,00000
 360,79; -779,000;    0,000;    0,000;-779,00000
 360,80; 1283,000;    0,000;    0,000;1283,00000
 360,81; 1719,000;    0,000;    0,000;1719,00000
 360,83;  109,000;    0,000;    0,000;109,00000
 360,84; -120,000;    0,000;    0,000;-120,00000
 360,85;  681,000;    0,000;    0,000;681,00000
 360,86;  813,000;    0,000;    0,000;813,00000
 360,88; -224,000;    0,000;    0,000;-224,00000
 360,89; -474,000;    0,000;    0,000;-474,00000
 360,90;  866,000;    0,000;    0,000;866,00000
 360,91;  592,000;    0,000;    0,000;592,00000
 360,92; -465,000;    0,000;    0,000;-465,00000
 360,94; -343,000;    0,000;    0,000;-343,00000
 360,95;  907,000;    0,000;    0,000;907,00000
 360,96;  492,000;    0,000;    0,000;492,00000
 360,97;   60,000;    0,000;    0,000;60,00000
 360,98; -835,000;    0,000;    0,000;-835,00000
 361,00; 1483,000;    0,000;    0,000;1483,00000
 361,01;  635,000;    0,000;    0,000;635,00000
 361,02;  102,000;    0,000;    0,000;102,00000
 361,03;  -31,000;    0,000;    0,000;-31,00000
 361,05;  441,000;    0,000;    0,000;441,00000
 361,06;  897,000;    0,000;    0,000;897,00000
 361,07; 1004,000;    0,000;    0,000;1004,00000
 361,08; -882,000;    0,000;    0,000;-882,00000
 361,09; 1053,000;    0,000;    0,000;1053,00000
 361,11;  804,000;    0,000;    0,000;804,00000
 361,12; -229,000;    0,000;    0,000;-229,00000
 361,13;  111,000;    0,000;    0,000;111,00000
 361,14; 1201,000;    0,000;    0,000;1201,00000
 361,15;  472,000;    0,000;    0,000;472,00000
 361,17;   -6,000;    0,000;    0,000;-6,00000
 361,18; -229,000;    0,000;    0,000;-229,00000
 361,19;  616,000;    0,000;    0,000;616,00000
 361,20;  564,000;    0,000;    0,000;564,00000
 361,21; -198,000;    0,000;    0,000;-198,00000
 361,23; -460,000;    0,000;    0,000;-460,00000
 361,24;  724,000;    0,000;    0,000;724,00000
 361,25;  401,000;    0,000;    0,000;401,00000
 361,26; -342,000;    0,000;    0,000;-342,00000
 361,27; -620,000;    0,000;    0,000;-620,00000
 361,29;  774,000;    0,000;    0,000;774,00000
 361,30;  561,000;    0,000;    0,000;561,00000
 361,31; -621,000;    0,000;    0,000;-621,00000
 361,32; -352,000;    0,000;    0,000;-352,00000
 361,34;  712,000;    0,000;    0,000;712,00000
 361,35;  404,000;    0,000;    0,000;404,00000
 361,36; -347,000;    0,000;    0,000;-347,00000
 361,37; -709,000;    0,000;    0,000;-709,00000
 361,38;  432,000;    0,000;    0,000;432,00000
 361,40;  361,000;    0,000;    0,000;361,00000
 361,41; -164,000;    0,000;    0,000;-164,00000
 361,42; -676,000;    0,000;    0,000;-676,00000
 361,43;  836,000;    0,000;    0,000;836,00000
 361,44;  681,000;    0,000;    0,000;681,00000
 361,46; -159,000;    0,000;    0,000;-159,00000
 361,47; -503,000;    0,000;    0,000;-503,00000
 361,48; 1104,000;    0,000;    0,000;1104,00000
 361,49;  315,000;    0,000;    0,000;315,00000
 361,50;   49,000;    0,000;    0,000;49,00000
 361,52;  832,000;    0,000;    0,000;832,00000
 361,53;  851,000;    0,000;    0,000;851,00000
 361,54; 1203,000;    0,000;    0,000;1203,00000
 361,55; -326,000;    0,000;    0,000;-326,00000
 361,56; -592,000;    0,000;    0,000;-592,00000
 361,58;  950,000;    0,000;    0,000;950,00000
 361,59;  553,000;    0,000;    0,000;553,00000
 361,60;  -24,000;    0,000;    0,000;-24,00000
 361,61; -328,000;    0,000;    0,000;-328,00000
 361,62;  736,000;    0,000;    0,000;736,00000
 361,64;  764,000;    0,000;    0,000;764,00000
 361,65;   25,000;    0,000;    0,000;25,00000
 361,66;  131,000;    0,000;    0,000;131,00000
 361,67; 1582,000;    0,000;    0,000;1582,00000
 361,68;  535,000;    0,000;    0,000;535,00000
 361,70; -164,000;    0,000;    0,000;-164,00000
 361,71; -518,000;    0,000;    0,000;-518,00000
 361,72; 1344,000;    0,000;    0,000;1344,00000
 361,73;  674,000;    0,000;    0,000;674,00000
 361,74;  -20,000;    0,000;    0,000;-20,00000
 361,75; -155,000;    0,000;    0,000;-155,00000
 361,77;  913,000;    0,000;    0,000;913,00000
 361,78;  731,000;    0,000;    0,000;731,00000
 361,79;   77,000;    0,000;    0,000;77,00000
 361,80; -475,000;    0,000;    0,000;-475,00000
 361,81; 2295,000;    0,000;    0,000;2295,00000
 361,83;  676,000;    0,000;    0,000;676,00000
 361,84; -384,000;    0,000;    0,000;-384,00000
 361,85; -692,000;    0,000;    0,000;-692,00000
 361,86;  993,000;    0,000;    0,000;993,00000
 361,87;  777,000;    0,000;    0,000;777,00000
 361,89; -380,000;    0,000;    0,000;-380,00000
 361,90; -765,000;    0,000;    0,000;-765,00000
 361,91; 1132,000;    0,000;    0,000;1132,00000
 361,92;  824,000;    0,000;    0,000;824,00000
 361,93; -185,000;    0,000;    0,000;-185,00000
 361,95; -599,000;    0,000;    0,000;-599,00000
 361,96; 1442,000;    0,000;    0,000;1442,00000
 361,97;  675,000;    0,000;    0,000;675,00000
 361,98;   82,000;    0,000;    0,000;82,00000
 361,99; -467,000;    0,000;    0,000;-467,00000
 362,01; 1619,000;    0,000;    0,000;1619,00000
 362,02;  910,000;    0,000;    0,000;910,00000
 362,03;   34,000;    0,000;    0,000;34,00000
 362,04; -384,000;    0,000;    0,000;-384,00000
 362,05;  961,000;    0,000;    0,000;961,00000
 362,06;  787,000;    0,000;    0,000;787,00000
 362,08; -331,000;    0,000;    0,000;-331,00000
 362,09; -114,000;    0,000;    0,000;-114,00000
 362,10;  504,000;    0,000;    0,000;504,00000
 362,11;  912,000;    0,000;    0,000;912,00000
 362,12; -332,000;    0,000;    0,000;-332,00000
 362,14;  186,000;    0,000;    0,000;186,00000
 362,15; 1357,000;    0,000;    0,000;1357,00000
 362,16; 1657,000;    0,000;    0,000;1657,00000
 362,17;   -8,000;    0,000;    0,000;-8,00000
 362,18;  -41,000;    0,000;    0,000;-41,00000
 362,20;  709,000;    0,000;    0,000;709,00000
 362,21; 1010,000;    0,000;    0,000;1010,00000
 362,22; -441,000;    0,000;    0,000;-441,00000
 362,23;  -33,000;    0,000;    0,000;-33,00000
 362,24;  742,000;    0,000;    0,000;742,00000
 362,25;  632,000;    0,000;    0,000;632,00000
 362,27; -435,000;    0,000;    0,000;-435,00000
 362,28; -397,000;    0,000;    0,000;-397,00000
 362,29; 1370,000;    0,000;    0,000;1370,00000
 362,30;  412,000;    0,000;    0,000;412,00000
 362,31; -254,000;    0,000;    0,000;-254,00000
 362,33; -638,000;    0,000;    0,000;-638,00000
 362,34; 1232,000;    0,000;    0,000;1232,00000
 362,35;  576,000;    0,000;    0,000;576,00000
 362,36; -186,000;    0,000;    0,000;-186,00000
 362,37; -458,000;    0,000;    0,000;-458,00000
 362,38;  791,000;    0,000;    0,000;791,00000
 362,40;  789,000;    0,000;    0,000;789,00000
 362,41; -180,000;    0,000;    0,000;-180,00000
 362,42; -138,000;    0,000;    0,000;-138,00000
 362,43;  979,000;    0,000;    0,000;979,00000
 362,44;  749,000;    0,000;    0,000;749,00000
 362,45; -207,000;    0,000;    0,000;-207,00000
 362,47; -247,000;    0,000;    0,000;-247,00000
 362,48; 1309,000;    0,000;    0,000;1309,00000
 362,49;  629,000;    0,000;    0,000;629,00000
 362,50; -315,000;    0,000;    0,000;-315,00000
 362,51; -308,000;    0,000;    0,000;-308,00000
 362,53;  431,000;    0,000;    0,000;431,00000
 362,54;  490,000;    0,000;    0,000;490,00000
 362,55;   31,000;    0,000;    0,000;31,00000
 362,56;  106,000;    0,000;    0,000;106,00000
 362,57; 2120,000;    0,000;    0,000;2120,00000
 362,58; 1551,000;    0,000;    0,000;1551,00000
 362,60;   45,000;    0,000;    0,000;45,00000
 362,61; -467,000;    0,000;    0,000;-467,00000
 362,62;  901,000;    0,000;    0,000;901,00000
 362,63;  609,000;    0,000;    0,000;609,00000
 362,64;   10,000;    0,000;    0,000;10,00000
 362,65; -164,000;    0,000;    0,000;-164,00000
 362,67; 1439,000;    0,000;    0,000;1439,00000
 362,68;  978,000;    0,000;    0,000;978,00000
 362,69; -437,000;    0,000;    0,000;-437,00000
 362,70;   90,000;    0,000;    0,000;90,00000
 362,71; 1074,000;    0,000;    0,000;1074,00000
 362,73;  957,000;    0,000;    0,000;957,00000
 362,74;  205,000;    0,000;    0,000;205,00000
 362,75;  -49,000;    0,000;    0,000;-49,00000
 362,76; 1137,000;    0,000;    0,000;1137,00000
 362,77;  698,000;    0,000;    0,000;698,00000
 362,78;  -97,000;    0,000;    0,000;-97,00000
 362,80; -252,000;    0,000;    0,000;-252,00000
 362,81; 1022,000;    0,000;    0,000;1022,00000
 362,82; 1194,000;    0,000;    0,000;1194,00000
 362,83; -221,000;    0,000;    0,000;-221,00000
 362,84;  303,000;    0,000;    0,000;303,00000
 362,85; 1042,000;    0,000;    0,000;1042,00000
 362,87;  790,000;    0,000;    0,000;790,00000
 362,88;  715,000;    0,000;    0,000;715,00000
 362,89;  -77,000;    0,000;    0,000;-77,00000
 362,90; 1146,000;    0,000;    0,000;1146,00000
 362,91;  622,000;    0,000;    0,000;622,00000
 362,92; 1027,000;    0,000;    0,000;1027,00000
 362,94;  -57,000;    0,000;    0,000;-57,00000
 362,95; 1070,000;    0,000;    0,000;1070,00000
 362,96; 1094,000;    0,000;    0,000;1094,00000
 362,97;    5,000;    0,000;    0,000; 5,00000
 362,98;  105,000;    0,000;    0,000;105,00000
 362,99; 1510,000;    0,000;    0,000;1510,00000
 363,01; 1314,000;    0,000;    0,000;1314,00000
 363,02;  301,000;    0,000;    0,000;301,00000
 363,03; -248,000;    0,000;    0,000;-248,00000
 363,04; 1517,000;    0,000;    0,000;1517,00000
 363,05; 1142,000;    0,000;    0,000;1142,00000
 363,06;  281,000;    0,000;    0,000;281,00000
 363,08;   74,000;    0,000;    0,000;74,00000
 363,09; 1642,000;    0,000;    0,000;1642,00000
 363,10; 1274,000;    0,000;    0,000;1274,00000
 363,11;   33,000;    0,000;    0,000;33,00000
 363,12;  -10,000;    0,000;    0,000;-10,00000
 363,13; 1281,000;    0,000;    0,000;1281,00000
 363,14; 1222,000;    0,000;    0,000;1222,00000
 363,16;  -47,000;    0,000;    0,000;-47,00000
 363,17;  418,000;    0,000;    0,000;418,00000
 363,18; 1277,000;    0,000;    0,000;1277,00000
 363,19; 1178,000;    0,000;    0,000;1178,00000
 363,20;  341,000;    0,000;    0,000;341,00000
 363,21; 1094,000;    0,000;    0,000;1094,00000
 363,23; 1063,000;    0,000;    0,000;1063,00000
 363,24; 1008,000;    0,000;    0,000;1008,00000
 363,25;   61,000;    0,000;    0,000;61,00000
 363,26;  332,000;    0,000;    0,000;332,00000
 363,27; 1241,000;    0,000;    0,000;1241,00000
 363,28; 1189,000;    0,000;    0,000;1189,00000
 363,30; 1058,000;    0,000;    0,000;1058,00000
 363,31; -172,000;    0,000;    0,000;-172,00000
 363,32; 1956,000;    0,000;    0,000;1956,00000
 363,33; 2528,000;    0,000;    0,000;2528,00000
 363,34;  289,000;    0,000;    0,000;289,00000
 363,35;  928,000;    0,000;    0,000;928,00000
 363,36; 2270,000;    0,000;    0,000;2270,00000
 363,38; 2279,000;    0,000;    0,000;2279,00000
 363,39;  658,000;    0,000;    0,000;658,00000
 363,40; 1024,000;    0,000;    0,000;1024,00000
 363,41; 2030,000;    0,000;    0,000;2030,00000
 363,42; 2248,000;    0,000;    0,000;2248,00000
 363,43; 1018,000;    0,000;    0,000;1018,00000
 363,45;  948,000;    0,000;    0,000;948,00000
 363,46; 2162,000;    0,000;    0,000;2162,00000
 363,47; 2416,000;    0,000;    0,000;2416,00000
 363,48;  480,000;    0,000;    0,000;480,00000
 363,49;  894,000;    0,000;    0,000;894,00000
 363,50; 2030,000;    0,000;    0,000;2030,00000
 363,51; 1876,000;    0,000;    0,000;1876,00000
 363,53; 1760,000;    0,000;    0,000;1760,00000
 363,54; 1031,000;    0,000;    0,000;1031,00000
 363,55; 2899,000;    0,000;    0,000;2899,00000
 363,56; 1934,000;    0,000;    0,000;1934,00000
 363,57; 1616,000;    0,000;    0,000;1616,00000
 363,58;  165,000;    0,000;    0,000;165,00000
 363,60; 1856,000;    0,000;    0,000;1856,00000
 363,61; 2123,000;    0,000;    0,000;2123,00000
 363,62; 1511,000;    0,000;    0,000;1511,00000
 363,63;  921,000;    0,000;    0,000;921,00000
 363,64; 2327,000;    0,000;    0,000;2327,00000
 363,65; 2017,000;    0,000;    0,000;2017,00000
 363,66; 1372,000;    0,000;    0,000;1372,00000
 363,68;  677,000;    0,000;    0,000;677,00000
 363,69; 2043,000;    0,000;    0,000;2043,00000
 363,70; 1981,000;    0,000;    0,000;1981,00000
 363,71; 1215,000;    0,000;    0,000;1215,00000
 363,72; 1125,000;    0,000;    0,000;1125,00000
 363,73; 2533,000;    0,000;    0,000;2533,00000
 363,74; 2907,000;    0,000;    0,000;2907,00000
 363,76; 1395,000;    0,000;    0,000;1395,00000
 363,77; 1403,000;    0,000;    0,000;1403,00000
 363,78; 2755,000;    0,000;    0,000;2755,00000
 363,79; 2686,000;    0,000;    0,000;2686,00000
 363,80; 1634,000;    0,000;    0,000;1634,00000
 363,81; 1885,000;    0,000;    0,000;1885,00000
 363,82; 2842,000;    0,000;    0,000;2842,00000
 363,84; 2661,000;    0,000;    0,000;2661,00000
 363,85; 1623,000;    0,000;    0,000;1623,00000
 363,86; 1556,000;    0,000;    0,000;1556,00000
 363,87; 2423,000;    0,000;    0,000;2423,00000
 363,88; 2226,000;    0,000;    0,000;2226,00000
 363,89; 1333,000;    0,000;    0,000;1333,00000
 363,90; 1709,000;    0,000;    0,000;1709,00000
 363,92; 2168,000;    0,000;    0,000;2168,00000
 363,93; 2125,000;    0,000;    0,000;2125,00000
 363,94; 1335,000;    0,000;    0,000;1335,00000
 363,95;  962,000;    0,000;    0,000;962,00000
 363,96; 2435,000;    0,000;    0,000;2435,00000
 363,97; 2689,000;    0,000;    0,000;2689,00000
 363,98; 1657,000;    0,000;    0,000;1657,00000
 364,00; 1711,000;    0,000;    0,000;1711,00000
 364,01; 2963,000;    0,000;    0,000;2963,00000
 364,02; 3529,000;    0,000;    0,000;3529,00000
 364,03; 2133,000;    0,000;    0,000;2133,00000
 364,04; 1734,000;    0,000;    0,000;1734,00000
 364,05; 3104,000;    0,000;    0,000;3104,00000
 364,06; 2177,000;    0,000;    0,000;2177,00000
 364,08; 1509,000;    0,000;    0,000;1509,00000
 364,09; 1756,000;    0,000;    0,000;1756,00000
 364,10; 3503,000;    0,000;    0,000;3503,00000
 364,11; 2641,000;    0,000;    0,000;2641,00000
 364,12; 1663,000;    0,000;    0,000;1663,00000
 364,13; 1474,000;    0,000;    0,000;1474,00000
 364,14; 2860,000;    0,000;    0,000;2860,00000
 364,15; 2477,000;    0,000;    0,000;2477,00000
 364,17; 1987,000;    0,000;    0,000;1987,00000
 364,18; 1371,000;    0,000;    0,000;1371,00000
 364,19; 2607,000;    0,000;    0,000;2607,00000
 364,20; 2881,000;    0,000;    0,000;2881,00000
 364,21; 1799,000;    0,000;    0,000;1799,00000
 364,22; 2717,000;    0,000;    0,000;2717,00000
 364,23; 3066,000;    0,000;    0,000;3066,00000
 364,25; 2999,000;    0,000;    0,000;2999,00000
 364,26; 1371,000;    0,000;    0,000;1371,00000
 364,27; 1411,000;    0,000;    0,000;1411,00000
 364,28; 2639,000;    0,000;    0,000;2639,00000
 364,29; 2138,000;    0,000;    0,000;2138,00000
 364,30;  804,000;    0,000;    0,000;804,00000
 364,31;  583,000;    0,000;    0,000;583,00000
 364,32; 2154,000;    0,000;    0,000;2154,00000
 364,34; 3147,000;    0,000;    0,000;3147,00000
 364,35; 1491,000;    0,000;    0,000;1491,00000
 364,36; 1279,000;    0,000;    0,000;1279,00000
 364,37; 2330,000;    0,000;    0,000;2330,00000
 364,38; 2066,000;    0,000;    0,000;2066,00000
 364,39; 1276,000;    0,000;    0,000;1276,00000
 364,40;  925,000;    0,000;    0,000;925,00000
 364,42; 1896,000;    0,000;    0,000;1896,00000
 364,43; 2120,000;    0,000;    0,000;2120,00000
 364,44; 1263,000;    0,000;    0,000;1263,00000
 364,45; 1009,000;    0,000;    0,000;1009,00000
 364,46; 2277,000;    0,000;    0,000;2277,00000
 364,47; 2405,000;    0,000;    0,000;2405,00000
 364,48; 1322,000;    0,000;    0,000;1322,00000
 364,49;  831,000;    0,000;    0,000;831,00000
 364,51; 2299,000;    0,000;    0,000;2299,00000
 364,52; 2586,000;    0,000;    0,000;2586,00000
 364,53; 1133,000;    0,000;    0,000;1133,00000
 364,54;  778,000;    0,000;    0,000;778,00000
 364,55; 2470,000;    0,000;    0,000;2470,00000
 364,56; 2699,000;    0,000;    0,000;2699,00000
 364,57; 1285,000;    0,000;    0,000;1285,00000
 364,58; 1440,000;    0,000;    0,000;1440,00000
 364,60; 2673,000;    0,000;    0,000;2673,00000
 364,61; 2182,000;    0,000;    0,000;2182,00000
 364,62; 1324,000;    0,000;    0,000;1324,00000
 364,63;  902,000;    0,000;    0,000;902,00000
 364,64; 2734,000;    0,000;    0,000;2734,00000
 364,65; 3140,000;    0,000;    0,000;3140,00000
 364,66; 1703,000;    0,000;    0,000;1703,00000
 364,67; 1807,000;    0,000;    0,000;1807,00000
 364,69; 2651,000;    0,000;    0,000;2651,00000
 364,70; 2562,000;    0,000;    0,000;2562,00000
 364,71; 2028,000;    0,000;    0,000;2028,00000
 364,72; 1969,000;    0,000;    0,000;1969,00000
 364,73; 3198,000;    0,000;    0,000;3198,00000
 364,74; 2861,000;    0,000;    0,000;2861,00000
 364,75; 2215,000;    0,000;    0,000;2215,00000
 364,76; 2287,000;    0,000;    0,000;2287,00000
 364,77; 3595,000;    0,000;    0,000;3595,00000
 364,79; 3318,000;    0,000;    0,000;3318,00000
 364,80; 2565,000;    0,000;    0,000;2565,00000
 364,81; 2969,000;    0,000;    0,000;2969,00000
 364,82; 4526,000;    0,000;    0,000;4526,00000
 364,83; 4497,000;    0,000;    0,000;4497,00000
 364,84; 4799,000;    0,000;    0,000;4799,00000
 364,85; 6352,000;    0,000;    0,000;6352,00000
 364,86; 9981,000;    0,000;    0,000;9981,00000
 364,88;12740,000;    0,000;    0,000;12740,00000
 364,89;16457,000;    0,000;    0,000;16457,00000
 364,90;26615,000;    0,000;    0,000;26615,00000
 364,91;42908,000;    0,000;    0,000;42908,00000
 364,92;61784,000;    0,000;    0,000;61784,00000
 364,93;62054,000;    0,000;    0,000;62054,00000
 364,94;61784,000;    0,000;    0,000;61784,00000
 364,95;62054,000;    0,000;    0,000;62054,00000
 364,96;61784,000;    0,000;    0,000;61784,00000
 364,98;62054,000;    0,000;    0,000;62054,00000
 364,99;61784,000;    0,000;    0,000;61784,00000
 365,00;62054,000;    0,000;    0,000;62054,00000
 365,01;61784,000;    0,000;    0,000;61784,00000
 365,02;62054,000;    0,000;    0,000;62054,00000
 365,03;61784,000;    0,000;    0,000;61784,00000
 365,04;62054,000;    0,000;    0,000;62054,00000
 365,05;61784,000;    0,000;    0,000;61784,00000
 365,06;62054,000;    0,000;    0,000;62054,00000
 365,08;61784,000;    0,000;    0,000;61784,00000
 365,09;62054,000;    0,000;    0,000;62054,00000
 365,10;61784,000;    0,000;    0,000;61784,00000
 365,11;62054,000;    0,000;    0,000;62054,00000
 365,12;61784,000;    0,000;    0,000;61784,00000
 365,13;62054,000;    0,000;    0,000;62054,00000
 365,14;61784,000;    0,000;    0,000;61784,00000
 365,15;62054,000;    0,000;    0,000;62054,00000
 365,16;61784,000;    0,000;    0,000;61784,00000
 365,18;62054,000;    0,000;    0,000;62054,00000
 365,19;61784,000;    0,000;    0,000;61784,00000
 365,20;62054,000;    0,000;    0,000;62054,00000
 365,21;61784,000;    0,000;    0,000;61784,00000
 365,22;62054,000;    0,000;    0,000;62054,00000
 365,23;61784,000;    0,000;    0,000;61784,00000
 365,24;62054,000;    0,000;    0,000;62054,00000
 365,25;61784,000;    0,000;    0,000;61784,00000
 365,26;62054,000;    0,000;    0,000;62054,00000
 365,28;61784,000;    0,000;    0,000;61784,00000
 365,29;62054,000;    0,000;    0,000;62054,00000
 365,30;61784,000;    0,000;    0,000;61784,00000
 365,31;62054,000;    0,000;    0,000;62054,00000
 365,32;61784,000;    0,000;    0,000;61784,00000
 365,33;62054,000;    0,000;    0,000;62054,00000
 365,34;61784,000;    0,000;    0,000;61784,00000
 365,35;62054,000;    0,000;    0,000;62054,00000
 365,36;61784,000;    0,000;    0,000;61784,00000
 365,37;62054,000;    0,000;    0,000;62054,00000
 365,39;61784,000;    0,000;    0,000;61784,00000
 365,40;62054,000;    0,000;    0,000;62054,00000
 365,41;61784,000;    0,000;    0,000;61784,00000
 365,42;62054,000;    0,000;    0,000;62054,00000
 365,43;61784,000;    0,000;    0,000;61784,00000
 365,44;62054,000;    0,000;    0,000;62054,00000
 365,45;61784,000;    0,000;    0,000;61784,00000
 365,46;62054,000;    0,000;    0,000;62054,00000
 365,47;61784,000;    0,000;    0,000;61784,00000
 365,48;62054,000;    0,000;    0,000;62054,00000
 365,50;61784,000;    0,000;    0,000;61784,00000
 365,51;62054,000;    0,000;    0,000;62054,00000
 365,52;61784,000;    0,000;    0,000;61784,00000
 365,53;62054,000;    0,000;    0,000;62054,00000
 365,54;61784,000;    0,000;    0,000;61784,00000
 365,55;62054,000;    0,000;    0,000;62054,00000
 365,56;61784,000;    0,000;    0,000;61784,00000
 365,57;62054,000;    0,000;    0,000;62054,00000
 365,58;61784,000;    0,000;    0,000;61784,00000
 365,59;62054,000;    0,000;    0,000;62054,00000
 365,61;61784,000;    0,000;    0,000;61784,00000
 365,62;62054,000;    0,000;    0,000;62054,00000
 365,63;61784,000;    0,000;    0,000;61784,00000
 365,64;62054,000;    0,000;    0,000;62054,00000
 365,65;61784,000;    0,000;    0,000;61784,00000
 365,66;62054,000;    0,000;    0,000;62054,00000
 365,67;61784,000;    0,000;    0,000;61784,00000
 365,68;62054,000;    0,000;    0,000;62054,00000
 365,69;61784,000;    0,000;    0,000;61784,00000
 365,70;62054,000;    0,000;    0,000;62054,00000
 365,72;61784,000;    0,000;    0,000;61784,00000
 365,73;62054,000;    0,000;    0,000;62054,00000
 365,74;61784,000;    0,000;    0,000;61784,00000
 365,75;62054,000;    0,000;    0,000;62054,00000
 365,76;61784,000;    0,000;    0,000;61784,00000
 365,77;62054,000;    0,000;    0,000;62054,00000
 365,78;61784,000;    0,000;    0,000;61784,00000
 365,79;62054,000;    0,000;    0,000;62054,00000
 365,80;61784,000;    0,000;    0,000;61784,00000
 365,81;62054,000;    0,000;    0,000;62054,00000
 365,82;61784,000;    0,000;    0,000;61784,00000
 365,84;62054,000;    0,000;    0,000;62054,00000
 365,85;61784,000;    0,000;    0,000;61784,00000
 365,86;62054,000;    0,000;    0,000;62054,00000
 365,87;61784,000;    0,000;    0,000;61784,00000
 365,88;62054,000;    0,000;    0,000;62054,00000
 365,89;61784,000;    0,000;    0,000;61784,00000
 365,90;62054,000;    0,000;    0,000;62054,00000
 365,91;61784,000;    0,000;    0,000;61784,00000
 365,92;62054,000;    0,000;    0,000;62054,00000
 365,93;61784,000;    0,000;    0,000;61784,00000
 365,94;62054,000;    0,000;    0,000;62054,00000
 365,96;61784,000;    0,000;    0,000;61784,00000
 365,97;62054,000;    0,000;    0,000;62054,00000
 365,98;61784,000;    0,000;    0,000;61784,00000
 365,99;62054,000;    0,000;    0,000;62054,00000
 366,00;61784,000;    0,000;    0,000;61784,00000
 366,01;62054,000;    0,000;    0,000;62054,00000
 366,02;61784,000;    0,000;    0,000;61784,00000
 366,03;62054,000;    0,000;    0,000;62054,00000
 366,04;61784,000;    0,000;    0,000;61784,00000
 366,05;61822,000;    0,000;    0,000;61822,00000
 366,06;61784,000;    0,000;    0,000;61784,00000
 366,07; 3983,000;    0,000;    0,000;3983,00000
 366,09; 3675,000;    0,000;    0,000;3675,00000
 366,10; 4184,000;    0,000;    0,000;4184,00000
 366,11; 4342,000;    0,000;    0,000;4342,00000
 366,12; 2589,000;    0,000;    0,000;2589,00000
 366,13; 2855,000;    0,000;    0,000;2855,00000
 366,14; 4488,000;    0,000;    0,000;4488,00000
 366,15; 4133,000;    0,000;    0,000;4133,00000
 366,16; 3315,000;    0,000;    0,000;3315,00000
 366,17; 3446,000;    0,000;    0,000;3446,00000
 366,18; 5982,000;    0,000;    0,000;5982,00000
 366,19; 7563,000;    0,000;    0,000;7563,00000
 366,20; 8129,000;    0,000;    0,000;8129,00000
 366,22;11617,000;    0,000;    0,000;11617,00000
 366,23;20339,000;    0,000;    0,000;20339,00000
 366,24;32354,000;    0,000;    0,000;32354,00000
 366,25;47630,000;    0,000;    0,000;47630,00000
 366,26;61784,000;    0,000;    0,000;61784,00000
 366,27;62054,000;    0,000;    0,000;62054,00000
 366,28;61784,000;    0,000;    0,000;61784,00000
 366,29;62054,000;    0,000;    0,000;62054,00000
 366,30;61784,000;    0,000;    0,000;61784,00000
 366,31;62054,000;    0,000;    0,000;62054,00000
 366,32;61784,000;    0,000;    0,000;61784,00000
 366,33;62054,000;    0,000;    0,000;62054,00000
 366,34;61784,000;    0,000;    0,000;61784,00000
 366,36;62054,000;    0,000;    0,000;62054,00000
 366,37;61784,000;    0,000;    0,000;61784,00000
 366,38;62054,000;    0,000;    0,000;62054,00000
 366,39;61784,000;    0,000;    0,000;61784,00000
 366,40;62054,000;    0,000;    0,000;62054,00000
 366,41;61784,000;    0,000;    0,000;61784,00000
 366,42;62054,000;    0,000;    0,000;62054,00000
 366,43;61784,000;    0,000;    0,000;61784,00000
 366,44;62054,000;    0,000;    0,000;62054,00000
 366,45;61784,000;    0,000;    0,000;61784,00000
 366,46;62054,000;    0,000;    0,000;62054,00000
 366,47;61784,000;    0,000;    0,000;61784,00000
 366,48;62054,000;    0,000;    0,000;62054,00000
 366,50;61784,000;    0,000;    0,000;61784,00000
 366,51;62054,000;    0,000;    0,000;62054,00000
 366,52;61784,000;    0,000;    0,000;61784,00000
 366,53;50540,000;    0,000;    0,000;50540,00000
 366,54;18920,000;    0,000;    0,000;18920,00000
 366,55; 3556,000;    0,000;    0,000;3556,00000
 366,56; 3276,000;    0,000;    0,000;3276,00000
 366,57; 4479,000;    0,000;    0,000;4479,00000
 366,58; 4159,000;    0,000;    0,000;4159,00000
 366,59; 2408,000;    0,000;    0,000;2408,00000
 366,60; 3083,000;    0,000;    0,000;3083,00000
 366,61; 3428,000;    0,000;    0,000;3428,00000
 366,62; 3499,000;    0,000;    0,000;3499,00000
 366,63; 2104,000;    0,000;    0,000;2104,00000
 366,65; 1861,000;    0,000;    0,000;1861,00000
 366,66; 3344,000;    0,000;    0,000;3344,00000
 366,67; 3093,000;    0,000;    0,000;3093,00000
 366,68; 1642,000;    0,000;    0,000;1642,00000
 366,69; 1789,000;    0,000;    0,000;1789,00000
 366,70; 2659,000;    0,000;    0,000;2659,00000
 366,71; 2741,000;    0,000;    0,000;2741,00000
 366,72; 1175,000;    0,000;    0,000;1175,00000
 366,73; 1246,000;    0,000;    0,000;1246,00000
 366,74; 2695,000;    0,000;    0,000;2695,00000
 366,75; 2519,000;    0,000;    0,000;2519,00000
 366,76; 1477,000;    0,000;    0,000;1477,00000
 366,77; 1077,000;    0,000;    0,000;1077,00000
 366,78; 2595,000;    0,000;    0,000;2595,00000
 366,79; 2495,000;    0,000;    0,000;2495,00000
 366,81;  990,000;    0,000;    0,000;990,00000
 366,82; 1136,000;    0,000;    0,000;1136,00000
 366,83; 2589,000;    0,000;    0,000;2589,00000
 366,84; 2099,000;    0,000;    0,000;2099,00000
 366,85;  998,000;    0,000;    0,000;998,00000
 366,86;  808,000;    0,000;    0,000;808,00000
 366,87; 2154,000;    0,000;    0,000;2154,00000
 366,88; 1550,000;    0,000;    0,000;1550,00000
 366,89;  970,000;    0,000;    0,000;970,00000
 366,90;  338,000;    0,000;    0,000;338,00000
 366,91; 2830,000;    0,000;    0,000;2830,00000
 366,92; 1634,000;    0,000;    0,000;1634,00000
 366,93;  619,000;    0,000;    0,000;619,00000
 366,94;  -32,000;    0,000;    0,000;-32,00000
 366,95; 1695,000;    0,000;    0,000;1695,00000
 366,96; 2062,000;    0,000;    0,000;2062,00000
 366,98;  975,000;    0,000;    0,000;975,00000
 366,99;  319,000;    0,000;    0,000;319,00000
 367,00; 2366,000;    0,000;    0,000;2366,00000
 367,01; 1329,000;    0,000;    0,000;1329,00000
 367,02;  517,000;    0,000;    0,000;517,00000
 367,03;  181,000;    0,000;    0,000;181,00000
 367,04; 2038,000;    0,000;    0,000;2038,00000
 367,05; 2036,000;    0,000;    0,000;2036,00000
 367,06;  371,000;    0,000;    0,000;371,00000
 367,07;  202,000;    0,000;    0,000;202,00000
 367,08; 2019,000;    0,000;    0,000;2019,00000
 367,09; 1490,000;    0,000;    0,000;1490,00000
 367,10;   92,000;    0,000;    0,000;92,00000
 367,11;   39,000;    0,000;    0,000;39,00000
 367,12; 1823,000;    0,000;    0,000;1823,00000
 367,13; 1471,000;    0,000;    0,000;1471,00000
 367,14;  381,000;    0,000;    0,000;381,00000
 367,15;  -49,000;    0,000;    0,000;-49,00000
 367,17; 2456,000;    0,000;    0,000;2456,00000
 367,18; 1173,000;    0,000;    0,000;1173,00000
 367,19;  496,000;    0,000;    0,000;496,00000
 367,20;  286,000;    0,000;    0,000;286,00000
 367,21; 1574,000;    0,000;    0,000;1574,00000
 367,22; 1275,000;    0,000;    0,000;1275,00000
 367,23;  509,000;    0,000;    0,000;509,00000
 367,24;  165,000;    0,000;    0,000;165,00000
 367,25; 1443,000;    0,000;    0,000;1443,00000
 367,26; 1608,000;    0,000;    0,000;1608,00000
 367,27;   42,000;    0,000;    0,000;42,00000
 367,28;   74,000;    0,000;    0,000;74,00000
 367,29; 1339,000;    0,000;    0,000;1339,00000
 367,30; 1635,000;    0,000;    0,000;1635,00000
 367,31;   30,000;    0,000;    0,000;30,00000
 367,32; -442,000;    0,000;    0,000;-442,00000
 367,33; 2475,000;    0,000;    0,000;2475,00000
 367,34; 1775,000;    0,000;    0,000;1775,00000
 367,35;  -60,000;    0,000;    0,000;-60,00000
 367,37;  212,000;    0,000;    0,000;212,00000
 367,38; 1503,000;    0,000;    0,000;1503,00000
 367,39; 1267,000;    0,000;    0,000;1267,00000
 367,40;  262,000;    0,000;    0,000;262,00000
 367,41; -189,000;    0,000;    0,000;-189,00000
 367,42; 1406,000;    0,000;    0,000;1406,00000
 367,43; 1193,000;    0,000;    0,000;1193,00000
 367,44;   62,000;    0,000;    0,000;62,00000
 367,45;  676,000;    0,000;    0,000;676,00000
 367,46; 1354,000;    0,000;    0,000;1354,00000
 367,47; 1112,000;    0,000;    0,000;1112,00000
 367,48;  245,000;    0,000;    0,000;245,00000
 367,49;   14,000;    0,000;    0,000;14,00000
 367,50; 1774,000;    0,000;    0,000;1774,00000
 367,51; 1134,000;    0,000;    0,000;1134,00000
 367,52;  362,000;    0,000;    0,000;362,00000
 367,53;  250,000;    0,000;    0,000;250,00000
 367,54; 1265,000;    0,000;    0,000;1265,00000
 367,55; 1106,000;    0,000;    0,000;1106,00000
 367,56;  -91,000;    0,000;    0,000;-91,00000
 367,57; -466,000;    0,000;    0,000;-466,00000
 367,58; 1835,000;    0,000;    0,000;1835,00000
 367,60; 1308,000;    0,000;    0,000;1308,00000
 367,61; -191,000;    0,000;    0,000;-191,00000
 367,62; -328,000;    0,000;    0,000;-328,00000
 367,63; 1995,000;    0,000;    0,000;1995,00000
 367,64; 1399,000;    0,000;    0,000;1399,00000
 367,65;  -32,000;    0,000;    0,000;-32,00000
 367,66; -228,000;    0,000;    0,000;-228,00000
 367,67; 1516,000;    0,000;    0,000;1516,00000
 367,68;  825,000;    0,000;    0,000;825,00000
 367,69;   14,000;    0,000;    0,000;14,00000
 367,70;   41,000;    0,000;    0,000;41,00000
 367,71; 1196,000;    0,000;    0,000;1196,00000
 367,72; 1259,000;    0,000;    0,000;1259,00000
 367,73; -353,000;    0,000;    0,000;-353,00000
 367,74; -148,000;    0,000;    0,000;-148,00000
 367,75; 1153,000;    0,000;    0,000;1153,00000
 367,76; 1155,000;    0,000;    0,000;1155,00000
 367,77; -218,000;    0,000;    0,000;-218,00000
 367,78; -353,000;    0,000;    0,000;-353,00000
 367,79; 1378,000;    0,000;    0,000;1378,00000
 367,80; 1732,000;    0,000;    0,000;1732,00000
 367,81; -500,000;    0,000;    0,000;-500,00000
 367,82; -138,000;    0,000;    0,000;-138,00000
 367,83; 1786,000;    0,000;    0,000;1786,00000
 367,84; 1072,000;    0,000;    0,000;1072,00000
 367,85; -262,000;    0,000;    0,000;-262,00000
 367,86; -191,000;    0,000;    0,000;-191,00000
 367,88; 1005,000;    0,000;    0,000;1005,00000
 367,89;  788,000;    0,000;    0,000;788,00000
 367,90;  -30,000;    0,000;    0,000;-30,00000
 367,91; -610,000;    0,000;    0,000;-610,00000
 367,92; 1623,000;    0,000;    0,000;1623,00000
 367,93; 1210,000;    0,000;    0,000;1210,00000
 367,94; -428,000;    0,000;    0,000;-428,00000
 367,95; -342,000;    0,000;    0,000;-342,00000
 367,96; 1291,000;    0,000;    0,000;1291,00000
 367,97; 1079,000;    0,000;    0,000;1079,00000
 367,98;   31,000;    0,000;    0,000;31,00000
 367,99; -501,000;    0,000;    0,000;-501,00000
 368,00; 1207,000;    0,000;    0,000;1207,00000
 368,01;  601,000;    0,000;    0,000;601,00000
 368,02;    4,000;    0,000;    0,000; 4,00000
 368,03; -147,000;    0,000;    0,000;-147,00000
 368,04;  738,000;    0,000;    0,000;738,00000
 368,05;  843,000;    0,000;    0,000;843,00000
 368,06;   75,000;    0,000;    0,000;75,00000
 368,07; -637,000;    0,000;    0,000;-637,00000
 368,08;  745,000;    0,000;    0,000;745,00000
 368,09;  956,000;    0,000;    0,000;956,00000
 368,10; -104,000;    0,000;    0,000;-104,00000
 368,11; -607,000;    0,000;    0,000;-607,00000
 368,12;  766,000;    0,000;    0,000;766,00000
 368,13;  852,000;    0,000;    0,000;852,00000
 368,14; -406,000;    0,000;    0,000;-406,00000
 368,15; -273,000;    0,000;    0,000;-273,00000
 368,16;  851,000;    0,000;    0,000;851,00000
 368,17;  626,000;    0,000;    0,000;626,00000
 368,18; -296,000;    0,000;    0,000;-296,00000
 368,19; -704,000;    0,000;    0,000;-704,00000
 368,20; 1792,000;    0,000;    0,000;1792,00000
 368,21; 1083,000;    0,000;    0,000;1083,00000
 368,23; -327,000;    0,000;    0,000;-327,00000
 368,24; -171,000;    0,000;    0,000;-171,00000
 368,25; 1290,000;    0,000;    0,000;1290,00000
 368,26; 1177,000;    0,000;    0,000;1177,00000
 368,27; -382,000;    0,000;    0,000;-382,00000
 368,28;  -64,000;    0,000;    0,000;-64,00000
 368,29;  875,000;    0,000;    0,000;875,00000
 368,30;  946,000;    0,000;    0,000;946,00000
 368,31;  239,000;    0,000;    0,000;239,00000
 368,32; -576,000;    0,000;    0,000;-576,00000
 368,33; 1014,000;    0,000;    0,000;1014,00000
 368,34; 1263,000;    0,000;    0,000;1263,00000
 368,35;   39,000;    0,000;    0,000;39,00000
 368,36; -609,000;    0,000;    0,000;-609,00000
 368,37;  910,000;    0,000;    0,000;910,00000
 368,38; 1246,000;    0,000;    0,000;1246,00000
 368,39;  110,000;    0,000;    0,000;110,00000
 368,40; -233,000;    0,000;    0,000;-233,00000
 368,41; 1134,000;    0,000;    0,000;1134,00000
 368,42; 1392,000;    0,000;    0,000;1392,00000
 368,43;  219,000;    0,000;    0,000;219,00000
 368,44; -592,000;    0,000;    0,000;-592,00000
 368,45; 1072,000;    0,000;    0,000;1072,00000
 368,46; 1294,000;    0,000;    0,000;1294,00000
 368,47; -184,000;    0,000;    0,000;-184,00000
 368,48; -181,000;    0,000;    0,000;-181,00000
 368,49; 1418,000;    0,000;    0,000;1418,00000
 368,50; 1289,000;    0,000;    0,000;1289,00000
 368,51; -313,000;    0,000;    0,000;-313,00000
 368,52;  -29,000;    0,000;    0,000;-29,00000
 368,53; 1002,000;    0,000;    0,000;1002,00000
 368,54; 1088,000;    0,000;    0,000;1088,00000
 368,55; -287,000;    0,000;    0,000;-287,00000
 368,56; -465,000;    0,000;    0,000;-465,00000
 368,57; 1634,000;    0,000;    0,000;1634,00000
 368,58;  710,000;    0,000;    0,000;710,00000
 368,59; -400,000;    0,000;    0,000;-400,00000
 368,60; -998,000;    0,000;    0,000;-998,00000
 368,61; 2200,000;    0,000;    0,000;2200,00000
 368,62;  890,000;    0,000;    0,000;890,00000
 368,63; -391,000;    0,000;    0,000;-391,00000
 368,64; -667,000;    0,000;    0,000;-667,00000
 368,65;  817,000;    0,000;    0,000;817,00000
 368,66;  385,000;    0,000;    0,000;385,00000
 368,67; -239,000;    0,000;    0,000;-239,00000
 368,68; -446,000;    0,000;    0,000;-446,00000
 368,69; 1137,000;    0,000;    0,000;1137,00000
 368,70; 1864,000;    0,000;    0,000;1864,00000
 368,71;  265,000;    0,000;    0,000;265,00000
 368,72; -666,000;    0,000;    0,000;-666,00000
 368,73;  913,000;    0,000;    0,000;913,00000
 368,74;  982,000;    0,000;    0,000;982,00000
 368,75; -342,000;    0,000;    0,000;-342,00000
 368,76; -340,000;    0,000;    0,000;-340,00000
 368,77;  903,000;    0,000;    0,000;903,00000
 368,78; 1006,000;    0,000;    0,000;1006,00000
 368,79; -105,000;    0,000;    0,000;-105,00000
 368,80; -480,000;    0,000;    0,000;-480,00000
 368,81; 1162,000;    0,000;    0,000;1162,00000
 368,82;  947,000;    0,000;    0,000;947,00000
 368,83; -517,000;    0,000;    0,000;-517,00000
 368,84; -555,000;    0,000;    0,000;-555,00000
 368,85; 1038,000;    0,000;    0,000;1038,00000
 368,86;  634,000;    0,000;    0,000;634,00000
 368,87; -542,000;    0,000;    0,000;-542,00000
 368,88; -757,000;    0,000;    0,000;-757,00000
 368,89; 1257,000;    0,000;    0,000;1257,00000
 368,90; 1232,000;    0,000;    0,000;1232,00000
 368,91;  213,000;    0,000;    0,000;213,00000
 368,92; -326,000;    0,000;    0,000;-326,00000
 368,93; 1094,000;    0,000;    0,000;1094,00000
 368,94; 1068,000;    0,000;    0,000;1068,00000
 368,95; -452,000;    0,000;    0,000;-452,00000
 368,96; -280,000;    0,000;    0,000;-280,00000
 368,97;  641,000;    0,000;    0,000;641,00000
 368,98; 1098,000;    0,000;    0,000;1098,00000
 368,99; -476,000;    0,000;    0,000;-476,00000
 369,00; -305,000;    0,000;    0,000;-305,00000
 369,01;  782,000;    0,000;    0,000;782,00000
 369,02; 1304,000;    0,000;    0,000;1304,00000
 369,03; -627,000;    0,000;    0,000;-627,00000
 369,04; -765,000;    0,000;    0,000;-765,00000
 369,05; 1226,000;    0,000;    0,000;1226,00000
 369,06;  776,000;    0,000;    0,000;776,00000
 369,07; -380,000;    0,000;    0,000;-380,00000
 369,08; -786,000;    0,000;    0,000;-786,00000
 369,09;  738,000;    0,000;    0,000;738,00000
 369,10;  918,000;    0,000;    0,000;918,00000
 369,11; -374,000;    0,000;    0,000;-374,00000
 369,12; -475,000;    0,000;    0,000;-475,00000
 369,13; 1111,000;    0,000;    0,000;1111,00000
 369,14;  636,000;    0,000;    0,000;636,00000
 369,15; -541,000;    0,000;    0,000;-541,00000
 369,16; -318,000;    0,000;    0,000;-318,00000
 369,17;  643,000;    0,000;    0,000;643,00000
 369,18; 1033,000;    0,000;    0,000;1033,00000
 369,19; -476,000;    0,000;    0,000;-476,00000
 369,20; -327,000;    0,000;    0,000;-327,00000
 369,21;  909,000;    0,000;    0,000;909,00000
 369,22;  629,000;    0,000;    0,000;629,00000
 369,23; -531,000;    0,000;    0,000;-531,00000
 369,24; -513,000;    0,000;    0,000;-513,00000
 369,25;  675,000;    0,000;    0,000;675,00000
 369,26; 1430,000;    0,000;    0,000;1430,00000
 369,27; -349,000;    0,000;    0,000;-349,00000
 369,28; -834,000;    0,000;    0,000;-834,00000
 369,29;  786,000;    0,000;    0,000;786,00000
 369,30;  687,000;    0,000;    0,000;687,00000
 369,31; -193,000;    0,000;    0,000;-193,00000
 369,32; -139,000;    0,000;    0,000;-139,00000
 369,33; 1057,000;    0,000;    0,000;1057,00000
 369,34;  708,000;    0,000;    0,000;708,00000
 369,35; -356,000;    0,000;    0,000;-356,00000
 369,36; -667,000;    0,000;    0,000;-667,00000
 369,37;  775,000;    0,000;    0,000;775,00000
 369,38; 1354,000;    0,000;    0,000;1354,00000
 369,39; -590,000;    0,000;    0,000;-590,00000
 369,40; -579,000;    0,000;    0,000;-579,00000
 369,41;  583,000;    0,000;    0,000;583,00000
 369,42; 1085,000;    0,000;    0,000;1085,00000
 369,43; -623,000;    0,000;    0,000;-623,00000
 369,44; -606,000;    0,000;    0,000;-606,00000
 369,45;  909,000;    0,000;    0,000;909,00000
 369,46;  797,000;    0,000;    0,000;797,00000
 369,47; -589,000;    0,000;    0,000;-589,00000
 369,48; -920,000;    0,000;    0,000;-920,00000
 369,49; 1777,000;    0,000;    0,000;1777,00000
 369,50; 1734,000;    0,000;    0,000;1734,00000
 369,51; -319,000;    0,000;    0,000;-319,00000
 369,52; -673,000;    0,000;    0,000;-673,00000
 369,53; 1448,000;    0,000;    0,000;1448,00000
 369,54; 1072,000;    0,000;    0,000;1072,00000
 369,55; -437,000;    0,000;    0,000;-437,00000
 369,56; -316,000;    0,000;    0,000;-316,00000
 369,57; 1160,000;    0,000;    0,000;1160,00000
 369,58;  779,000;    0,000;    0,000;779,00000
 369,59; -470,000;    0,000;    0,000;-470,00000
 369,60; -715,000;    0,000;    0,000;-715,00000
 369,61; 1038,000;    0,000;    0,000;1038,00000
 369,62;  481,000;    0,000;    0,000;481,00000
 369,63; -592,000;    0,000;    0,000;-592,00000
 369,64; -748,000;    0,000;    0,000;-748,00000
 369,65; 1525,000;    0,000;    0,000;1525,00000
 369,66;  698,000;    0,000;    0,000;698,00000
 369,67; -427,000;    0,000;    0,000;-427,00000
 369,68; -813,000;    0,000;    0,000;-813,00000
 369,69;  772,000;    0,000;    0,000;772,00000
 369,70;  862,000;    0,000;    0,000;862,00000
 369,71; -403,000;    0,000;    0,000;-403,00000
 369,72; -658,000;    0,000;    0,000;-658,00000
 369,73;  896,000;    0,000;    0,000;896,00000
 369,74;  801,000;    0,000;    0,000;801,00000
 369,75; -297,000;    0,000;    0,000;-297,00000
 369,76; -378,000;    0,000;    0,000;-378,00000
 369,77;  997,000;    0,000;    0,000;997,00000
 369,78;  775,000;    0,000;    0,000;775,00000
 369,79; -455,000;    0,000;    0,000;-455,00000
 369,80; -665,000;    0,000;    0,000;-665,00000
 369,81; 1015,000;    0,000;    0,000;1015,00000
 369,81;  898,000;    0,000;    0,000;898,00000
 369,82; -188,000;    0,000;    0,000;-188,00000
 369,83; -620,000;    0,000;    0,000;-620,00000
 369,84; 1536,000;    0,000;    0,000;1536,00000
 369,85;  797,000;    0,000;    0,000;797,00000
 369,86; -659,000;    0,000;    0,000;-659,00000
 369,87; -735,000;    0,000;    0,000;-735,00000
 369,88; 1276,000;    0,000;    0,000;1276,00000
 369,89;  657,000;    0,000;    0,000;657,00000
 369,90; -569,000;    0,000;    0,000;-569,00000
 369,91; -448,000;    0,000;    0,000;-448,00000
 369,92; 1059,000;    0,000;    0,000;1059,00000
 369,93;  825,000;    0,000;    0,000;825,00000
 369,94; -321,000;    0,000;    0,000;-321,00000
 369,95; -577,000;    0,000;    0,000;-577,00000
 369,96;  724,000;    0,000;    0,000;724,00000
 369,97;  625,000;    0,000;    0,000;625,00000
 369,98; -583,000;    0,000;    0,000;-583,00000
 369,99; -977,000;    0,000;    0,000;-977,00000
 370,00; 1054,000;    0,000;    0,000;1054,00000
 370,01;  581,000;    0,000;    0,000;581,00000
 370,02; -203,000;    0,000;    0,000;-203,00000
 370,03; -896,000;    0,000;    0,000;-896,00000
 370,04; 1206,000;    0,000;    0,000;1206,00000
 370,05;  820,000;    0,000;    0,000;820,00000
 370,06; -213,000;    0,000;    0,000;-213,00000
 370,07; -834,000;    0,000;    0,000;-834,00000
 370,08;  996,000;    0,000;    0,000;996,00000
 370,09;  514,000;    0,000;    0,000;514,00000
 370,10; -500,000;    0,000;    0,000;-500,00000
 370,11;  295,000;    0,000;    0,000;295,00000
 370,12;  827,000;    0,000;    0,000;827,00000
 370,13;  659,000;    0,000;    0,000;659,00000
 370,14; -257,000;    0,000;    0,000;-257,00000
 370,14; -279,000;    0,000;    0,000;-279,00000
 370,15; 1714,000;    0,000;    0,000;1714,00000
 370,16; 1603,000;    0,000;    0,000;1603,00000
 370,17; -456,000;    0,000;    0,000;-456,00000
 370,18; -439,000;    0,000;    0,000;-439,00000
 370,19; 1331,000;    0,000;    0,000;1331,00000
 370,20;  716,000;    0,000;    0,000;716,00000
 370,21; -490,000;    0,000;    0,000;-490,00000
 370,22; -393,000;    0,000;    0,000;-393,00000
 370,23;  899,000;    0,000;    0,000;899,00000
 370,24; 1017,000;    0,000;    0,000;1017,00000
 370,25;  278,000;    0,000;    0,000;278,00000
 370,26; -478,000;    0,000;    0,000;-478,00000
 370,27;  838,000;    0,000;    0,000;838,00000
 370,28;  819,000;    0,000;    0,000;819,00000
 370,29; -531,000;    0,000;    0,000;-531,00000
 370,30; -854,000;    0,000;    0,000;-854,00000
 370,31;  995,000;    0,000;    0,000;995,00000
 370,32;  740,000;    0,000;    0,000;740,00000
 370,33; -660,000;    0,000;    0,000;-660,00000
 370,34; -424,000;    0,000;    0,000;-424,00000
 370,35; 1093,000;    0,000;    0,000;1093,00000
 370,36; 1225,000;    0,000;    0,000;1225,00000
 370,37; -676,000;    0,000;    0,000;-676,00000
 370,38; -537,000;    0,000;    0,000;-537,00000
 370,39; 1112,000;    0,000;    0,000;1112,00000
 370,40; 1020,000;    0,000;    0,000;1020,00000
 370,40;  -51,000;    0,000;    0,000;-51,00000
 370,41;  151,000;    0,000;    0,000;151,00000
 370,42; 1246,000;    0,000;    0,000;1246,00000
 370,43; 1655,000;    0,000;    0,000;1655,00000
 370,44; -386,000;    0,000;    0,000;-386,00000
 370,45; -380,000;    0,000;    0,000;-380,00000
 370,46;  892,000;    0,000;    0,000;892,00000
 370,47; 1082,000;    0,000;    0,000;1082,00000
 370,48; -370,000;    0,000;    0,000;-370,00000
 370,49; -758,000;    0,000;    0,000;-758,00000
 370,50;  750,000;    0,000;    0,000;750,00000
 370,51;  719,000;    0,000;    0,000;719,00000
 370,52; -455,000;    0,000;    0,000;-455,00000
 370,53; -538,000;    0,000;    0,000;-538,00000
 370,54; 1327,000;    0,000;    0,000;1327,00000
 370,55;  640,000;    0,000;    0,000;640,00000
 370,56; -588,000;    0,000;    0,000;-588,00000
 370,57; -742,000;    0,000;    0,000;-742,00000
 370,58;  709,000;    0,000;    0,000;709,00000
 370,59;  325,000;    0,000;    0,000;325,00000
 370,60; -420,000;    0,000;    0,000;-420,00000
 370,61; -645,000;    0,000;    0,000;-645,00000
 370,61; 1323,000;    0,000;    0,000;1323,00000
 370,62;  800,000;    0,000;    0,000;800,00000
 370,63;  -77,000;    0,000;    0,000;-77,00000
 370,64; -823,000;    0,000;    0,000;-823,00000
 370,65;  960,000;    0,000;    0,000;960,00000
 370,66; 1081,000;    0,000;    0,000;1081,00000
 370,67;  -98,000;    0,000;    0,000;-98,00000
 370,68; -385,000;    0,000;    0,000;-385,00000
 370,69;  583,000;    0,000;    0,000;583,00000
 370,70;  557,000;    0,000;    0,000;557,00000
 370,71;  153,000;    0,000;    0,000;153,00000
 370,72; -798,000;    0,000;    0,000;-798,00000
 370,73; 1146,000;    0,000;    0,000;1146,00000
 370,74; 1355,000;    0,000;    0,000;1355,00000
 370,75; -503,000;    0,000;    0,000;-503,00000
 370,76; -762,000;    0,000;    0,000;-762,00000
 370,77;  679,000;    0,000;    0,000;679,00000
 370,78;  478,000;    0,000;    0,000;478,00000
 370,79; -700,000;    0,000;    0,000;-700,00000
 370,79; -566,000;    0,000;    0,000;-566,00000
 370,80; 1055,000;    0,000;    0,000;1055,00000
 370,81;  949,000;    0,000;    0,000;949,00000
 370,82; -541,000;    0,000;    0,000;-541,00000
 370,83; -357,000;    0,000;    0,000;-357,00000
 370,84;  749,000;    0,000;    0,000;749,00000
 370,85;  953,000;    0,000;    0,000;953,00000
 370,86; -363,000;    0,000;    0,000;-363,00000
 370,87; -703,000;    0,000;    0,000;-703,00000
 370,88;  862,000;    0,000;    0,000;862,00000
 370,89;  756,000;    0,000;    0,000;756,00000
 370,90; -601,000;    0,000;    0,000;-601,00000
 370,91;    8,000;    0,000;    0,000; 8,00000
 370,92; 2043,000;    0,000;    0,000;2043,00000
 370,93;  966,000;    0,000;    0,000;966,00000
 370,94; -414,000;    0,000;    0,000;-414,00000
 370,95;   69,000;    0,000;    0,000;69,00000
 370,95;  714,000;    0,000;    0,000;714,00000
 370,96;  895,000;    0,000;    0,000;895,00000

