
Integration time [ms]: 200.000
Averaging Nr. [scans]: 10
Smoothing Nr. [pixels]: 0
Data measured with spectrometer [name]: 1804344U2
Wave   ;Sample   ;Dark     ;Reference;Scope Corrected for Dark
[nm]   ;[counts] ;[counts] ;[counts] 

 294.45;  115.231;   99.500;    0.000;15.73147
 294.62;   56.554;   50.700;    0.000; 5.85448
 294.79;   35.379;   24.000;    0.000;11.37873
 294.96;   35.292;    5.700;    0.000;29.59245
 295.13;  104.005;  142.400;    0.000;-38.39542
 295.29;  -24.795;  -43.900;    0.000;19.10475
 295.46;  -70.109;  -77.300;    0.000; 7.19086
 295.63; -179.254; -175.700;    0.000;-3.55414
 295.80;  156.822;  119.700;    0.000;37.12250
 295.97;   38.073;   18.100;    0.000;19.97346
 296.14;  -49.857;  -46.100;    0.000;-3.75730
 296.30;   37.460;   61.200;    0.000;-23.73989
 296.47;  -10.604;   23.400;    0.000;-34.00420
 296.64;  -48.959;  -27.900;    0.000;-21.05940
 296.81;   46.563;   52.600;    0.000;-6.03654
 296.98;  134.281;  116.600;    0.000;17.68137
 297.14;   75.280;   85.200;    0.000;-9.92037
 297.31; -122.501; -116.000;    0.000;-6.50123
 297.48;   42.274;   75.900;    0.000;-33.62583
 297.65;  -80.614;  -84.300;    0.000; 3.68577
 297.82;  -24.970;    6.900;    0.000;-31.87011
 297.99;    0.188;  -18.500;    0.000;18.68805
 298.15;   -2.223;    8.800;    0.000;-11.02337
 298.32;   61.837;   50.700;    0.000;11.13708
 298.49;  -32.153;  -17.100;    0.000;-15.05272
 298.66;  -20.804;   -8.400;    0.000;-12.40404
 298.83;  -35.528;  -32.100;    0.000;-3.42776
 298.99;  -57.618;  -53.900;    0.000;-3.71827
 299.16;  -28.705;  -23.600;    0.000;-5.10456
 299.33;  -49.111;  -57.300;    0.000; 8.18893
 299.50;    9.996;   25.800;    0.000;-15.80368
 299.67;  156.536;  135.400;    0.000;21.13586
 299.83;   94.493;  155.200;    0.000;-60.70684
 300.00;   64.538;   51.900;    0.000;12.63779
 300.17;  -23.301;   -9.700;    0.000;-13.60052
 300.34; -113.722;  -88.000;    0.000;-25.72179
 300.51;  -21.282;   -5.600;    0.000;-15.68154
 300.68;  -13.289;  -13.400;    0.000; 0.11055
 300.84;  217.340;  218.900;    0.000;-1.55974
 301.01;   37.766;   38.000;    0.000;-0.23409
 301.18;  136.485;  142.900;    0.000;-6.41475
 301.35;   17.709;   -3.500;    0.000;21.20897
 301.52;  -45.685;  -44.100;    0.000;-1.58471
 301.68; -127.933; -125.400;    0.000;-2.53286
 301.85;  -38.853;  -39.700;    0.000; 0.84729
 302.02;   68.513;   59.000;    0.000; 9.51301
 302.19;   24.623;   15.400;    0.000; 9.22268
 302.36;   12.464;   36.800;    0.000;-24.33638
 302.52;   10.315;    9.000;    0.000; 1.31494
 302.69;  -24.296;  -21.400;    0.000;-2.89648
 302.86;  141.792;  126.400;    0.000;15.39193
 303.03;   57.114;   38.000;    0.000;19.11372
 303.20;  -17.926;    4.300;    0.000;-22.22635
 303.36;  -53.232;  -80.200;    0.000;26.96836
 303.53;   22.232;   25.900;    0.000;-3.66801
 303.70;   -0.549;   13.900;    0.000;-14.44851
 303.87;  -73.791;  -66.500;    0.000;-7.29138
 304.04;   21.357;   61.000;    0.000;-39.64271
 304.20;   52.694;   53.900;    0.000;-1.20649
 304.37;  -50.497;  -40.700;    0.000;-9.79719
 304.54;  -85.765;  -84.100;    0.000;-1.66502
 304.71;    6.572;    3.600;    0.000; 2.97224
 304.88;   73.922;  119.700;    0.000;-45.77837
 305.04;  112.811;  105.400;    0.000; 7.41055
 305.21;  107.693;  108.700;    0.000;-1.00684
 305.38;  -49.500;  -84.500;    0.000;34.99965
 305.55;  -41.703;   -7.400;    0.000;-34.30333
 305.71;   77.240;   36.900;    0.000;40.34025
 305.88;  107.409;   94.400;    0.000;13.00932
 306.05;   49.232;   61.900;    0.000;-12.66837
 306.22;    7.422;  -21.800;    0.000;29.22162
 306.39;   37.233;   33.400;    0.000; 3.83305
 306.55;  161.928;  150.600;    0.000;11.32829
 306.72;  -31.557;  -18.800;    0.000;-12.75694
 306.89;   24.754;   31.700;    0.000;-6.94639
 307.06;   20.184;   50.000;    0.000;-29.81582
 307.23;  -13.642;  -20.500;    0.000; 6.85836
 307.39;   55.235;   73.000;    0.000;-17.76485
 307.56;   38.181;   65.300;    0.000;-27.11915
 307.73;  134.498;  145.700;    0.000;-11.20245
 307.90;  209.596;  199.400;    0.000;10.19632
 308.06;   -2.733;   11.200;    0.000;-13.93286
 308.23;  -22.069;    7.300;    0.000;-29.36924
 308.40;    2.860;    5.700;    0.000;-2.83954
 308.57;   63.860;   77.800;    0.000;-13.94007
 308.74;  -74.547;  -73.900;    0.000;-0.64709
 308.90;   33.389;   70.300;    0.000;-36.91124
 309.07;  -33.036;  -43.000;    0.000; 9.96362
 309.24; -106.703; -111.200;    0.000; 4.49702
 309.41;  138.399;  143.200;    0.000;-4.80087
 309.57;  -28.904;  -24.700;    0.000;-4.20439
 309.74;  -30.514;  -63.500;    0.000;32.98647
 309.91;    8.831;  -11.700;    0.000;20.53095
 310.08;  163.015;  177.800;    0.000;-14.78506
 310.25;  -82.993;  -88.100;    0.000; 5.10738
 310.41;  -62.215;  -76.200;    0.000;13.98489
 310.58;   54.967;   86.900;    0.000;-31.93303
 310.75;   78.324;   79.200;    0.000;-0.87556
 310.92;   74.907;   59.500;    0.000;15.40652
 311.08;  -10.750;  -14.500;    0.000; 3.74991
 311.25; -113.889;  -88.900;    0.000;-24.98945
 311.42; -140.964; -150.800;    0.000; 9.83551
 311.59;  -19.633;  -17.400;    0.000;-2.23322
 311.76;   12.765;   -4.700;    0.000;17.46537
 311.92;   63.748;   87.800;    0.000;-24.05220
 312.09;   -6.789;  -32.700;    0.000;25.91107
 312.26;  -25.906;   -1.200;    0.000;-24.70597
 312.43;  -88.433;  -87.400;    0.000;-1.03286
 312.59;    9.705;    3.400;    0.000; 6.30545
 312.76;  -29.292;  -55.400;    0.000;26.10826
 312.93;   25.602;   30.100;    0.000;-4.49771
 313.10;   86.685;   71.900;    0.000;14.78454
 313.26;   71.723;   40.500;    0.000;31.22321
 313.43;  -42.502;  -33.500;    0.000;-9.00158
 313.60;  -15.238;    1.700;    0.000;-16.93848
 313.77;   13.468;   -7.900;    0.000;21.36801
 313.94;  -76.573;  -45.000;    0.000;-31.57257
 314.10;    2.194;  -25.500;    0.000;27.69403
 314.27;  -18.338;   12.500;    0.000;-30.83796
 314.44;  103.896;   80.500;    0.000;23.39632
 314.61;  -60.831;   -1.700;    0.000;-59.13092
 314.77;   87.013;   90.600;    0.000;-3.58699
 314.94;   29.011;   41.100;    0.000;-12.08857
 315.11; -146.095; -134.700;    0.000;-11.39490
 315.28;   40.492;   55.300;    0.000;-14.80772
 315.44;  -17.297;    4.000;    0.000;-21.29665
 315.61;   22.203;   37.200;    0.000;-14.99700
 315.78;   25.946;   41.100;    0.000;-15.15448
 315.95;   78.890;   86.900;    0.000;-8.01001
 316.11;  -16.476;   -7.800;    0.000;-8.67557
 316.28;   78.660;   93.900;    0.000;-15.23971
 316.45;  -36.541;  -62.800;    0.000;26.25923
 316.62;   36.829;   42.900;    0.000;-6.07118
 316.78;   31.468;   -6.900;    0.000;38.36837
 316.95;  -23.870;   -8.900;    0.000;-14.97047
 317.12;  101.053;   63.000;    0.000;38.05325
 317.29;   12.309;   59.000;    0.000;-46.69068
 317.45;  -38.615;  -46.800;    0.000; 8.18489
 317.62;  -19.064;  -15.900;    0.000;-3.16396
 317.79;  -29.623;  -39.000;    0.000; 9.37698
 317.96;   44.242;   79.200;    0.000;-34.95781
 318.12;   59.244;   65.700;    0.000;-6.45571
 318.29;  120.906;  132.800;    0.000;-11.89384
 318.46;  -25.176;  -41.500;    0.000;16.32443
 318.63;  -35.998;  -59.600;    0.000;23.60193
 318.79;  -32.861;    0.400;    0.000;-33.26081
 318.96;  120.098;  138.500;    0.000;-18.40175
 319.13;  104.779;  126.900;    0.000;-22.12092
 319.30;   46.638;   52.700;    0.000;-6.06221
 319.46;  127.482;  138.800;    0.000;-11.31792
 319.63;   -4.109;   -1.900;    0.000;-2.20930
 319.80; -129.865; -109.400;    0.000;-20.46450
 319.97;  -27.357;  -17.400;    0.000;-9.95694
 320.13;  -12.128;    4.300;    0.000;-16.42812
 320.30;  -47.364;  -15.900;    0.000;-31.46379
 320.47;  -13.592;   -7.000;    0.000;-6.59226
 320.64;  112.480;  105.100;    0.000; 7.37979
 320.80;  -94.205;  -79.100;    0.000;-15.10545
 320.97; -118.020; -106.100;    0.000;-11.91985
 321.14;    0.259;  -28.100;    0.000;28.35923
 321.31;  -91.512; -100.500;    0.000; 8.98841
 321.47;  -19.558;  -33.800;    0.000;14.24235
 321.64;   48.502;   69.600;    0.000;-21.09771
 321.81;  -47.189;   -2.800;    0.000;-44.38945
 321.97;   33.940;   23.000;    0.000;10.94008
 322.14;   24.609;   42.900;    0.000;-18.29103
 322.31;  -45.835;  -19.500;    0.000;-26.33532
 322.48;  -97.920;  -83.000;    0.000;-14.91985
 322.64;   15.332;   35.000;    0.000;-19.66783
 322.81;    8.968;   14.900;    0.000;-5.93163
 322.98;  -53.276;  -33.900;    0.000;-19.37609
 323.15;  -63.016;  -70.500;    0.000; 7.48383
 323.31;    2.154;   26.000;    0.000;-23.84622
 323.48;  -55.755;  -89.900;    0.000;34.14535
 323.65;   51.826;   46.600;    0.000; 5.22566
 323.82;  -74.595;  -94.600;    0.000;20.00545
 323.98;   81.147;   94.900;    0.000;-13.75288
 324.15;   22.513;   32.000;    0.000;-9.48664
 324.32;   34.693;   72.400;    0.000;-37.70702
 324.48;   92.806;   87.400;    0.000; 5.40616
 324.65;  101.269;  115.300;    0.000;-14.03058
 324.82;  -54.141;  -70.200;    0.000;16.05852
 324.99;   26.245;   42.000;    0.000;-15.75500
 325.15;  -24.254;  -32.100;    0.000; 7.84587
 325.32;   65.623;   49.100;    0.000;16.52304
 325.49;  -39.643;  -58.700;    0.000;19.05694
 325.65;   -7.138;   11.600;    0.000;-18.73848
 325.82;  -62.440;  -58.100;    0.000;-4.33954
 325.99;   39.625;   47.700;    0.000;-8.07486
 326.16;  -25.684;   -0.200;    0.000;-25.48383
 326.32;  104.809;  149.100;    0.000;-44.29068
 326.49;   82.884;   92.400;    0.000;-9.51582
 326.66;   66.594;  107.500;    0.000;-40.90614
 326.83;   -1.777;    0.700;    0.000;-2.47715
 326.99;   86.215;   93.700;    0.000;-7.48470
 327.16;   17.925;   -5.400;    0.000;23.32460
 327.33;  -31.405;   -1.900;    0.000;-29.50491
 327.49;   28.667;    9.800;    0.000;18.86749
 327.66;  100.254;  104.000;    0.000;-3.74639
 327.83;  -88.565;  -76.800;    0.000;-11.76537
 328.00;   -3.351;   -1.200;    0.000;-2.15113
 328.16;   64.280;   76.300;    0.000;-12.01986
 328.33;  -46.976;  -58.300;    0.000;11.32391
 328.50; -118.552;  -64.800;    0.000;-53.75184
 328.66;   35.609;   67.600;    0.000;-31.99138
 328.83;  -17.684;  -45.400;    0.000;27.71582
 329.00;   -0.527;   17.500;    0.000;-18.02689
 329.17;  -29.046;  -25.500;    0.000;-3.54622
 329.33;  163.881;  186.300;    0.000;-22.41914
 329.50;    9.832;   22.400;    0.000;-12.56801
 329.67;    5.623;   22.400;    0.000;-16.77679
 329.83;  104.583;  111.000;    0.000;-6.41740
 330.00;  -61.999;    1.800;    0.000;-63.79929
 330.17;  -53.944;  -81.500;    0.000;27.55555
 330.34;  238.697;  240.900;    0.000;-2.20332
 330.50;  -13.151;   -0.200;    0.000;-12.95097
 330.67;   65.208;   89.300;    0.000;-24.09226
 330.84;   57.448;   32.700;    0.000;24.74816
 331.00;   21.017;   18.400;    0.000; 2.61653
 331.17;  -25.679;  -56.100;    0.000;30.42075
 331.34;  -65.265;  -68.800;    0.000; 3.53463
 331.50;    5.816;   14.500;    0.000;-8.68435
 331.67;  -85.120;  -64.600;    0.000;-20.51986
 331.84; -102.835;  -89.300;    0.000;-13.53532
 332.01;   39.169;   59.300;    0.000;-20.13145
 332.17;  -44.244;  -33.800;    0.000;-10.44429
 332.34;  141.607;  114.700;    0.000;26.90651
 332.51;  -23.243;  -39.300;    0.000;16.05659
 332.67;    1.467;   -2.500;    0.000; 3.96678
 332.84;  -70.054;  -80.300;    0.000;10.24587
 333.01;  -55.369;  -34.500;    0.000;-20.86924
 333.17;  -12.431;    9.300;    0.000;-21.73093
 333.34;   -8.210;  -10.700;    0.000; 2.49034
 333.51;  -18.014;   -5.100;    0.000;-12.91388
 333.68;  -26.104;  -23.600;    0.000;-2.50404
 333.84;  -45.323;  -87.100;    0.000;41.77734
 334.01;    5.165;   36.100;    0.000;-30.93532
 334.18;  -51.379;  -38.200;    0.000;-13.17944
 334.34;  -17.653;   -8.800;    0.000;-8.85272
 334.51;  -31.266;  -28.400;    0.000;-2.86608
 334.68;  -77.501;  -41.400;    0.000;-36.10139
 334.84;   48.057;   48.200;    0.000;-0.14323
 335.01;   82.058;  106.300;    0.000;-24.24200
 335.18;   30.479;   24.100;    0.000; 6.37892
 335.34;   79.748;   73.700;    0.000; 6.04816
 335.51;  -61.026;  -52.500;    0.000;-8.52618
 335.68;   41.334;   30.200;    0.000;11.13392
 335.85;  -85.440; -142.200;    0.000;56.75993
 336.01;  -30.585;  -32.800;    0.000; 2.21548
 336.18;  -48.333;  -54.800;    0.000; 6.46749
 336.35;  -39.894;  -20.700;    0.000;-19.19384
 336.51;  -81.201; -110.800;    0.000;29.59913
 336.68;   75.551;   81.000;    0.000;-5.44920
 336.85;   -0.622;  -13.200;    0.000;12.57750
 337.01;   47.350;   53.200;    0.000;-5.85043
 337.18;  136.554;  127.000;    0.000; 9.55360
 337.35;  -58.367;  -72.300;    0.000;13.93341
 337.51;   63.205;   57.800;    0.000; 5.40475
 337.68;    5.802;   14.400;    0.000;-8.59788
 337.85;  -18.579;   11.800;    0.000;-30.37908
 338.01;   31.163;   34.300;    0.000;-3.13690
 338.18;   12.960;   19.900;    0.000;-6.93954
 338.35;  -57.199;  -36.600;    0.000;-20.59859
 338.51;   82.022;  136.800;    0.000;-54.77767
 338.68;  -55.859;  -58.300;    0.000; 2.44060
 338.85;  -12.221;  -56.500;    0.000;44.27856
 339.01;  103.668;   93.500;    0.000;10.16820
 339.18;  -35.089;  -62.400;    0.000;27.31091
 339.35;   28.955;   84.300;    0.000;-55.34481
 339.52;  -10.357;  -12.300;    0.000; 1.94341
 339.68;  -21.487;   -3.300;    0.000;-18.18699
 339.85;   11.257;  -14.200;    0.000;25.45694
 340.02;  -23.786;  -24.100;    0.000; 0.31407
 340.18;   18.919;  -36.400;    0.000;55.31934
 340.35;  -93.005;  -98.200;    0.000; 5.19473
 340.52;   30.471;   17.700;    0.000;12.77101
 340.68;    9.169;   -3.000;    0.000;12.16872
 340.85;  -39.491;  -27.800;    0.000;-11.69138
 341.02;   -9.889;    1.900;    0.000;-11.78857
 341.18;  -82.310;  -69.600;    0.000;-12.71037
 341.35;   16.883;   29.400;    0.000;-12.51669
 341.52;  147.330;  141.300;    0.000; 6.03024
 341.68;  -44.630;  -14.300;    0.000;-30.32970
 341.85; -142.826; -157.500;    0.000;14.67381
 342.02;    6.663;   14.600;    0.000;-7.93655
 342.18;   13.128;    3.100;    0.000;10.02812
 342.35;   90.459;   94.200;    0.000;-3.74077
 342.52;  -47.063;  -56.900;    0.000; 9.83744
 342.68;  -59.289;  -74.100;    0.000;14.81055
 342.85;    3.796;  -20.900;    0.000;24.69632
 343.02;  -37.530;  -26.400;    0.000;-11.13022
 343.18;  -41.458;  -53.200;    0.000;11.74183
 343.35;   22.612;   11.500;    0.000;11.11230
 343.52;   64.244;   44.900;    0.000;19.34377
 343.68;   50.335;   61.000;    0.000;-10.66485
 343.85;  109.051;   48.300;    0.000;60.75132
 344.02;   19.535;   15.000;    0.000; 4.53463
 344.18;  108.367;   65.000;    0.000;43.36662
 344.35;   30.244;    9.800;    0.000;20.44447
 344.51;   89.406;   66.600;    0.000;22.80633
 344.68;   -7.751;  -61.200;    0.000;53.44887
 344.85;   35.362;   -1.800;    0.000;37.16204
 345.01;   29.658;    0.200;    0.000;29.45836
 345.18; -103.617; -110.600;    0.000; 6.98331
 345.35;   -6.988;    6.700;    0.000;-13.68822
 345.51;    8.688;  -14.500;    0.000;23.18805
 345.68;  -90.371;  -85.700;    0.000;-4.67118
 345.85; -147.444; -155.400;    0.000; 7.95605
 346.01;   99.684;  100.900;    0.000;-1.21634
 346.18;  -45.702;  -76.500;    0.000;30.79754
 346.35;  -90.920; -105.800;    0.000;14.88050
 346.51;    0.562;   -6.500;    0.000; 7.06239
 346.68;   17.000;   -4.700;    0.000;21.70019
 346.85;   49.447;   58.300;    0.000;-8.85290
 347.01;  -16.304;    8.800;    0.000;-25.10385
 347.18;    1.397;   -8.100;    0.000; 9.49684
 347.35;   44.599;   60.200;    0.000;-15.60069
 347.51;  207.185;  180.200;    0.000;26.98454
 347.68;  157.718;  153.300;    0.000; 4.41829
 347.85;  -16.566;  -49.400;    0.000;32.83393
 348.01;   -4.070;  -31.300;    0.000;27.22988
 348.18;   19.661;  -12.800;    0.000;32.46117
 348.34;  -87.856;  -64.800;    0.000;-23.05623
 348.51;  126.705;  117.400;    0.000; 9.30457
 348.68;  166.531;  139.600;    0.000;26.93111
 348.84;    0.555;  -13.800;    0.000;14.35484
 349.01;   28.564;   -7.900;    0.000;36.46433
 349.18;  -15.540;  -48.500;    0.000;32.96029
 349.34;   -3.708;   -9.500;    0.000; 5.79192
 349.51;   18.384;   40.100;    0.000;-21.71634
 349.68;  -32.864;  -40.000;    0.000; 7.13621
 349.84;  -92.680; -110.400;    0.000;17.72004
 350.01;   37.061;   -2.800;    0.000;39.86116
 350.18;   50.572;    2.600;    0.000;47.97188
 350.34;  -60.642;  -99.600;    0.000;38.95783
 350.51;  -11.929;  -10.300;    0.000;-1.62934
 350.67;   54.832;   -2.300;    0.000;57.13182
 350.84;  -24.197;  -52.400;    0.000;28.20264
 351.01;   49.684;   50.300;    0.000;-0.61563
 351.17;   97.539;   75.200;    0.000;22.33867
 351.34;  -61.634;  -47.800;    0.000;-13.83426
 351.51; -121.220; -147.600;    0.000;26.37980
 351.67;   37.950;   21.300;    0.000;16.64993
 351.84;   35.329;  -11.700;    0.000;47.02918
 352.00;  122.104;   89.400;    0.000;32.70422
 352.17;  235.061;  178.300;    0.000;56.76080
 352.34;   32.040;    8.200;    0.000;23.83973
 352.50;   90.044;   83.000;    0.000; 7.04412
 352.67;   23.694;  -11.700;    0.000;35.39351
 352.84;   48.482;   -6.900;    0.000;55.38243
 353.00;  -33.420;  -30.900;    0.000;-2.52038
 353.17;   36.563;   14.800;    0.000;21.76310
 353.34;  -32.357;  -58.500;    0.000;26.14254
 353.50;  -51.500;  -57.500;    0.000; 5.99983
 353.67;   88.362;   35.900;    0.000;52.46187
 353.83;   25.621;  -24.600;    0.000;50.22127
 354.00;  139.867;  103.600;    0.000;36.26698
 354.17;  -89.278;  -87.700;    0.000;-1.57838
 354.33;   61.261;   40.900;    0.000;20.36064
 354.50;  188.868;  128.600;    0.000;60.26836
 354.66;  112.933;   99.800;    0.000;13.13288
 354.83;  -80.783; -118.300;    0.000;37.51653
 355.00;   -1.888;   -9.400;    0.000; 7.51178
 355.16;  121.698;  103.700;    0.000;17.99825
 355.33;   -7.550;   25.300;    0.000;-32.85007
 355.50;   83.160;   70.700;    0.000;12.45994
 355.66;  -11.932;  -89.400;    0.000;77.46820
 355.83;   13.235;  -25.800;    0.000;39.03463
 355.99;   63.391;   43.500;    0.000;19.89105
 356.16;   21.565;   -2.200;    0.000;23.76520
 356.33;   22.869;    6.000;    0.000;16.86891
 356.49;    2.136;   -6.500;    0.000; 8.63586
 356.66;  151.272;  139.700;    0.000;11.57224
 356.83;  -49.809;  -95.100;    0.000;45.29051
 356.99; -113.880; -119.600;    0.000; 5.72039
 357.16;   54.899;   30.800;    0.000;24.09948
 357.32;  102.604;   83.900;    0.000;18.70406
 357.49;   77.594;   37.100;    0.000;40.49351
 357.66;   80.031;   20.100;    0.000;59.93111
 357.82;   61.335;   38.200;    0.000;23.13515
 357.99;  111.113;   81.700;    0.000;29.41284
 358.15;  238.112;  237.400;    0.000; 0.71179
 358.32;   47.988;   -0.700;    0.000;48.68841
 358.49;  -76.481; -115.000;    0.000;38.51933
 358.65;  311.688;  299.200;    0.000;12.48840
 358.82;   38.616;  -31.500;    0.000;70.11565
 358.98;  -16.662;  -37.800;    0.000;21.13779
 359.15;   75.728;   48.700;    0.000;27.02795
 359.32;   97.980;   71.900;    0.000;26.08015
 359.48;  141.935;   88.100;    0.000;53.83480
 359.65;  112.603;   62.600;    0.000;50.00265
 359.81;   45.940;   -6.000;    0.000;51.93954
 359.98;   18.235;   14.800;    0.000; 3.43498
 360.15;   74.609;   36.400;    0.000;38.20949
 360.31;   31.114;   29.300;    0.000; 1.81407
 360.48;   75.232;    7.900;    0.000;67.33199
 360.64;   71.240;   72.500;    0.000;-1.26027
 360.81; -170.195; -192.900;    0.000;22.70509
 360.98;    3.758;  -68.000;    0.000;71.75765
 361.14;   69.931;    9.100;    0.000;60.83076
 361.31; -104.534; -141.300;    0.000;36.76591
 361.47;  123.117;   71.500;    0.000;51.61740
 361.64;    3.501;  -59.600;    0.000;63.10106
 361.81;   25.383;  -61.100;    0.000;86.48331
 361.97;   -0.229;  -36.900;    0.000;36.67101
 362.14;   95.126;   45.900;    0.000;49.22566
 362.30;   55.267;    9.600;    0.000;45.66733
 362.47;   22.898;   -4.600;    0.000;27.49825
 362.64;   81.006;   43.400;    0.000;37.60580
 362.80;  141.247;   73.100;    0.000;68.14729
 362.97;  266.090;  214.600;    0.000;51.48999
 363.13;  -31.528;  -73.700;    0.000;42.17188
 363.30;   40.520;   -0.700;    0.000;41.22039
 363.47;   51.041;  -31.900;    0.000;82.94131
 363.63;   76.289;    4.700;    0.000;71.58928
 363.80;   11.910;  -10.600;    0.000;22.51020
 363.96;  102.740;   54.300;    0.000;48.43973
 364.13;  126.745;   63.100;    0.000;63.64535
 364.30;  107.656;   84.700;    0.000;22.95555
 364.46;   71.491;   59.800;    0.000;11.69070
 364.63;  121.714;   41.100;    0.000;80.61443
 364.79;   63.308;    2.200;    0.000;61.10826
 364.96;  102.573;   77.800;    0.000;24.77294
 365.12;   95.564;   51.500;    0.000;44.06433
 365.29;   49.654;    2.700;    0.000;46.95396
 365.46;  -37.386;  -84.200;    0.000;46.81442
 365.62;   15.665;  -29.400;    0.000;45.06452
 365.79;   99.498;   46.100;    0.000;53.39806
 365.95;   90.185;   54.100;    0.000;36.08524
 366.12;  -17.329;  -96.300;    0.000;78.97101
 366.29;  -16.728;  -65.100;    0.000;48.37207
 366.45;   -1.456;  -35.900;    0.000;34.44412
 366.62;   87.610;   50.200;    0.000;37.40968
 366.78;  -18.419;  -62.100;    0.000;43.68066
 366.95;   63.109;   21.600;    0.000;41.50932
 367.11;    5.032;  -42.700;    0.000;47.73182
 367.28;   48.953;   43.600;    0.000; 5.35309
 367.45;  -50.599; -109.100;    0.000;58.50142
 367.61;   32.054;  -20.000;    0.000;52.05413
 367.78;   50.872;    2.400;    0.000;48.47188
 367.94;   64.943;   26.100;    0.000;38.84289
 368.11;  -17.439;  -76.300;    0.000;58.86117
 368.27;  -24.971;  -60.000;    0.000;35.02918
 368.44;  -12.586;  -77.300;    0.000;64.71372
 368.61;  112.436;   67.800;    0.000;44.63550
 368.77;    7.791;  -80.600;    0.000;88.39122
 368.94;   -2.812;  -45.900;    0.000;43.08754
 369.10;   26.633;  -30.600;    0.000;57.23269
 369.27;  150.966;  140.900;    0.000;10.06592
 369.43;  122.698;   30.800;    0.000;91.89825
 369.60;   18.754;  -13.100;    0.000;31.85396
 369.77;  112.415;   59.300;    0.000;53.11494
 369.93;  239.808;  172.200;    0.000;67.60809
 370.10;   28.689;  -29.400;    0.000;58.08928
 370.26;   86.534;   44.300;    0.000;42.23375
 370.43;  -18.591;  -77.000;    0.000;58.40949
 370.59;  174.078;  127.700;    0.000;46.37805
 370.76;   46.168;  -22.700;    0.000;68.86837
 370.92;  135.264;   67.100;    0.000;68.16416
 371.09;   57.881;  -30.900;    0.000;88.78085
 371.26;  192.924;   98.300;    0.000;94.62392
 371.42;   70.029;   24.600;    0.000;45.42917
 371.59;   57.038;    2.200;    0.000;54.83779
 371.75;    8.927;  -36.700;    0.000;45.62672
 371.92;  117.479;   35.200;    0.000;82.27892
 372.08;  117.913;   34.600;    0.000;83.31336
 372.25;   39.540;  -24.900;    0.000;64.43973
 372.42;  -24.853;  -76.600;    0.000;51.74693
 372.58;   86.633;   18.400;    0.000;68.23288
 372.75;   34.167;  -39.600;    0.000;73.76697
 372.91;   21.744;   -2.900;    0.000;24.64377
 373.08;   29.375;  -20.900;    0.000;50.27540
 373.24;   47.083;  -13.500;    0.000;60.58331
 373.41;    2.327;  -54.800;    0.000;57.12707
 373.57;  122.357;   60.800;    0.000;61.55729
 373.74;   12.579;  -43.700;    0.000;56.27927
 373.90;  -60.718; -129.400;    0.000;68.68155
 374.07;   34.522;  -11.600;    0.000;46.12198
 374.24;  -17.951;  -61.700;    0.000;43.74887
 374.40;  141.309;   96.200;    0.000;45.10950
 374.57;   89.752;   39.300;    0.000;50.45203
 374.73;   15.521;  -11.600;    0.000;27.12127
 374.90;  105.187;   52.400;    0.000;52.78718
 375.06;   20.556;  -33.900;    0.000;54.45590
 375.23;  113.807;   44.500;    0.000;69.30651
 375.39;    7.966;  -77.600;    0.000;85.56626
 375.56;  153.504;   92.000;    0.000;61.50423
 375.73;  116.570;   10.600;    0.000;105.97014
 375.89;  133.195;   82.800;    0.000;50.39543
 376.06;   11.874;  -65.400;    0.000;77.27434
 376.22;   90.868;   15.200;    0.000;75.66820
 376.39;    8.142;  -54.100;    0.000;62.24183
 376.55;    1.681;  -29.900;    0.000;31.58121
 376.72;   93.676;   19.900;    0.000;73.77575
 376.88;  141.994;  103.700;    0.000;38.29439
 377.05;   42.162;    1.700;    0.000;40.46187
 377.21;  144.393;   70.900;    0.000;73.49279
 377.38;   32.798;  -44.200;    0.000;76.99790
 377.54;  -17.454;  -81.600;    0.000;64.14570
 377.71;  116.648;   61.600;    0.000;55.04835
 377.88;   91.714;   57.800;    0.000;33.91355
 378.04;  168.139;   85.200;    0.000;82.93903
 378.21;  -69.693; -112.100;    0.000;42.40739
 378.37;  103.966;   43.300;    0.000;60.66626
 378.54;  143.332;   82.200;    0.000;61.13217
 378.70;  185.394;  116.800;    0.000;68.59438
 378.87;   22.005;  -26.300;    0.000;48.30545
 379.03;   56.501;    9.600;    0.000;46.90071
 379.20;  162.037;   90.500;    0.000;71.53728
 379.36;  127.221;   32.500;    0.000;94.72127
 379.53;  107.668;   67.000;    0.000;40.66785
 379.69;  166.305;   88.800;    0.000;77.50510
 379.86;  177.192;   83.200;    0.000;93.99193
 380.02;    5.177;  -60.900;    0.000;66.07698
 380.19;   92.583;   55.700;    0.000;36.88330
 380.36;  -84.220; -142.100;    0.000;57.87980
 380.52;  -52.118; -101.800;    0.000;49.68244
 380.69;   77.164;    1.200;    0.000;75.96433
 380.85;  107.393;   63.600;    0.000;43.79334
 381.02;  -80.790; -128.900;    0.000;48.10984
 381.18;   71.538;  -11.900;    0.000;83.43780
 381.35;   26.178;  -53.900;    0.000;80.07821
 381.51;   72.675;   21.800;    0.000;50.87453
 381.68;   77.479;   41.800;    0.000;35.67944
 381.84;  -53.589;  -59.300;    0.000; 5.71126
 382.01;   18.347;  -55.900;    0.000;74.24658
 382.17;  110.565;   24.800;    0.000;85.76539
 382.34;   -6.512;  -66.300;    0.000;59.78770
 382.50;   -2.359;  -67.800;    0.000;65.44131
 382.67;  -27.171; -101.200;    0.000;74.02901
 382.83;   80.986;   70.500;    0.000;10.48595
 383.00;  174.467;  105.000;    0.000;69.46713
 383.16;   29.235;   13.800;    0.000;15.43498
 383.33;    1.481;  -72.900;    0.000;74.38085
 383.49;  112.299;   74.700;    0.000;37.59861
 383.66;  104.469;   28.100;    0.000;76.36943
 383.82;  -40.124; -132.900;    0.000;92.77575
 383.99;   92.734;   -4.500;    0.000;97.23376
 384.15;   48.001;   -5.700;    0.000;53.70106
 384.32;   96.459;   35.500;    0.000;60.95906
 384.48;  106.253;   39.100;    0.000;67.15255
 384.65;  121.158;   40.900;    0.000;80.25800
 384.82;  174.155;  132.500;    0.000;41.65520
 384.98;   61.149;  -22.900;    0.000;84.04903
 385.15;   31.880;    4.100;    0.000;27.78050
 385.31;  120.417;    7.300;    0.000;113.11653
 385.48;  147.367;   87.400;    0.000;59.96662
 385.64;   79.956;   10.100;    0.000;69.85642
 385.81;   95.917;   49.200;    0.000;46.71688
 385.97;   73.468;   -6.400;    0.000;79.86837
 386.14;   69.307;   -7.300;    0.000;76.60739
 386.30;  110.998;   23.800;    0.000;87.19790
 386.47;   -8.638;  -77.800;    0.000;69.16223
 386.63;   30.774;  -43.800;    0.000;74.57417
 386.80;   85.084;    9.800;    0.000;75.28401
 386.96;  125.451;   47.400;    0.000;78.05132
 387.13;  216.404;  115.500;    0.000;100.90370
 387.29;  112.604;   65.300;    0.000;47.30422
 387.46;   41.562;    7.000;    0.000;34.56152
 387.62;  247.665;  169.800;    0.000;77.86504
 387.79;  118.089;   51.800;    0.000;66.28876
 387.95;   14.688;  -39.000;    0.000;53.68841
 388.12;   45.112;  -31.000;    0.000;76.11213
 388.28;   94.513;    2.400;    0.000;92.11266
 388.45;  -13.266;  -58.000;    0.000;44.73376
 388.61;  123.341;   81.200;    0.000;42.14148
 388.78;   -2.415;  -76.000;    0.000;73.58472
 388.94;   63.530;  -54.600;    0.000;118.12988
 389.11;  180.466;   91.300;    0.000;89.16574
 389.27;   69.918;  -16.800;    0.000;86.71846
 389.44;   74.003;    1.500;    0.000;72.50300
 389.60;   88.409;   15.000;    0.000;73.40897
 389.77;   59.857;  -13.600;    0.000;73.45748
 389.93;   77.999;   22.800;    0.000;55.19877
 390.10;   85.036;   45.000;    0.000;40.03621
 390.26;  -17.222;  -93.300;    0.000;76.07821
 390.42;  122.386;   83.000;    0.000;39.38560
 390.59;   79.747;   51.000;    0.000;28.74745
 390.75;   73.716;   23.300;    0.000;50.41565
 390.92;  -38.364; -101.100;    0.000;62.73550
 391.08;  -17.323;  -66.600;    0.000;49.27681
 391.25;    1.124;  -77.500;    0.000;78.62356
 391.41;   -5.121;  -94.300;    0.000;89.17892
 391.58;  -25.748;  -82.000;    0.000;56.25167
 391.74;    0.811;  -59.200;    0.000;60.01126
 391.91;  -54.406; -112.800;    0.000;58.39438
 392.07;  103.535;   96.000;    0.000; 7.53463
 392.24;  -79.325; -133.200;    0.000;53.87505
 392.40;   25.119;  -33.800;    0.000;58.91881
 392.57;   30.181;  -70.400;    0.000;100.58102
 392.73;   -7.962;  -48.100;    0.000;40.13815
 392.90;   29.896;   17.200;    0.000;12.69577
 393.06;  171.764;  138.900;    0.000;32.86382
 393.23;   34.688;   -6.700;    0.000;41.38770
 393.39;  -10.395;  -51.000;    0.000;40.60545
 393.56;   57.762;  -33.100;    0.000;90.86239
 393.72;  183.349;   88.600;    0.000;94.74886
 393.89;   49.679;  -23.500;    0.000;73.17856
 394.05;   56.276;   -1.200;    0.000;57.47611
 394.22;  114.849;   35.800;    0.000;79.04939
 394.38;  -24.332;  -82.200;    0.000;57.86784
 394.55;    0.153;  -56.100;    0.000;56.25326
 394.71;  -39.244;  -83.400;    0.000;44.15642
 394.87;   73.138;   -1.200;    0.000;74.33831
 395.04;   -3.086; -105.600;    0.000;102.51442
 395.20;   88.035;   12.600;    0.000;75.43534
 395.37;  138.028;   69.500;    0.000;68.52831
 395.53;   56.111;    0.700;    0.000;55.41055
 395.70;  160.975;  113.200;    0.000;47.77469
 395.86;  -14.446;  -97.600;    0.000;83.15448
 396.03;  102.148;   98.200;    0.000; 3.94800
 396.19;   80.359;   21.800;    0.000;58.55923
 396.36;  141.941;   89.900;    0.000;52.04096
 396.52;    3.754;  -85.600;    0.000;89.35448
 396.69;  292.234;  228.500;    0.000;63.73410
 396.85;  174.204;   68.400;    0.000;105.80352
 397.02;  107.036;  -69.000;    0.000;176.03621
 397.18;  220.115;   38.200;    0.000;181.91459
 397.34;  129.995;   -7.900;    0.000;137.89544
 397.51;  -16.805; -102.500;    0.000;85.69473
 397.67;   -2.993;  -45.700;    0.000;42.70687
 397.84;  167.334;   85.600;    0.000;81.73428
 398.00;  -17.128;  -73.700;    0.000;56.57223
 398.17;   11.602;  -75.100;    0.000;86.70193
 398.33;   22.254;  -10.800;    0.000;33.05396
 398.50;  103.122;   27.400;    0.000;75.72250
 398.66;  146.666;   82.900;    0.000;63.76626
 398.83;  -19.967;  -74.200;    0.000;54.23321
 398.99;   57.189;    9.300;    0.000;47.88876
 399.16;   13.461;  -46.300;    0.000;59.76081
 399.32;  112.822;   30.800;    0.000;82.02198
 399.48;   59.956;  -15.500;    0.000;75.45607
 399.65;  -24.464; -108.300;    0.000;83.83622
 399.81;   -8.005;  -78.600;    0.000;70.59473
 399.98;   14.761;  -27.300;    0.000;42.06116
 400.14;   46.485;  -53.400;    0.000;99.88454
 400.31;   28.547;  -25.900;    0.000;54.44693
 400.47;  270.448;  210.500;    0.000;59.94815
 400.64;   23.689;  -24.400;    0.000;48.08876
 400.80;   18.274;  -74.500;    0.000;92.77382
 400.96;   51.631;  -10.300;    0.000;61.93059
 401.13;   68.239;    3.100;    0.000;65.13902
 401.29;   82.796;   51.500;    0.000;31.29596
 401.46;  -68.939; -131.500;    0.000;62.56116
 401.62;   45.450;   -3.000;    0.000;48.45045
 401.79;   64.828;   -6.000;    0.000;70.82812
 401.95;  -50.962;  -91.200;    0.000;40.23814
 402.12;   13.233;  -53.300;    0.000;66.53269
 402.28;  109.627;   61.400;    0.000;48.22707
 402.44;  100.890;   45.400;    0.000;55.49034
 402.61;   76.549;   21.500;    0.000;55.04852
 402.77;   48.014;   -9.600;    0.000;57.61424
 402.94;   33.134;  -33.800;    0.000;66.93428
 403.10;  104.464;   38.000;    0.000;66.46432
 403.27;   28.369;   -4.400;    0.000;32.76855
 403.43;   37.249;   -9.800;    0.000;47.04939
 403.60;  117.527;   80.600;    0.000;36.92672
 403.76;   52.600;  -17.700;    0.000;70.30035
 403.92;  169.674;  103.100;    0.000;66.57381
 404.09;   59.348;    5.400;    0.000;53.94780
 404.25;  -23.402;  -54.400;    0.000;30.99790
 404.42;   59.633;   -8.200;    0.000;67.83269
 404.58;  183.998;  116.000;    0.000;67.99825
 404.75;   48.002;  -16.500;    0.000;64.50229
 404.91;   66.460;   24.400;    0.000;42.06029
 405.07;  313.839;  251.000;    0.000;62.83902
 405.24;  112.365;   68.500;    0.000;43.86469
 405.40;   71.555;  -18.900;    0.000;90.45519
 405.57;   -4.637;  -45.900;    0.000;41.26329
 405.73;   82.316;   21.100;    0.000;61.21582
 405.90;   77.148;   21.800;    0.000;55.34764
 406.06;   19.180;  -60.200;    0.000;79.38015
 406.22;   42.113;  -28.800;    0.000;70.91336
 406.39;   48.138;  -36.800;    0.000;84.93796
 406.55;  123.871;   15.200;    0.000;108.67136
 406.72;   57.891;  -39.300;    0.000;97.19122
 406.88;   94.957;   13.400;    0.000;81.55677
 407.05;   41.913;  -75.000;    0.000;116.91336
 407.21;  186.720;  102.400;    0.000;84.32005
 407.37;   82.630;    7.100;    0.000;75.53005
 407.54;   53.279;  -19.100;    0.000;72.37892
 407.70;  182.864;  117.200;    0.000;65.66434
 407.87;   30.957;  -20.500;    0.000;51.45713
 408.03;  217.156;   84.500;    0.000;132.65572
 408.20;    2.987;  -45.000;    0.000;47.98718
 408.36;  -21.444;  -80.500;    0.000;59.05590
 408.52;  -30.558;  -83.200;    0.000;52.64166
 408.69;  -36.767; -105.800;    0.000;69.03270
 408.85;   81.110;   43.800;    0.000;37.31003
 409.02;   72.398;   -1.100;    0.000;73.49825
 409.18;   48.686;    1.100;    0.000;47.58560
 409.35;   75.794;    3.800;    0.000;71.99438
 409.51;  189.312;  142.300;    0.000;47.01161
 409.67;  -26.664;  -78.100;    0.000;51.43602
 409.84;   89.189;   23.900;    0.000;65.28876
 410.00;  101.881;    2.800;    0.000;99.08102
 410.17;  420.317;  166.800;    0.000;253.51723
 410.33;  422.458;  -29.500;    0.000;451.95834
 410.49;  457.939;   77.800;    0.000;380.13902
 410.66;  127.179;   15.000;    0.000;112.17944
 410.82;  111.916;   72.500;    0.000;39.41565
 410.99;   92.465;   21.500;    0.000;70.96520
 411.15;   63.351;   64.500;    0.000;-1.14885
 411.31;  110.236;   31.600;    0.000;78.63602
 411.48;   14.016;  -45.200;    0.000;59.21565
 411.64;   -1.318;  -60.200;    0.000;58.88208
 411.81;   25.215;  -29.200;    0.000;54.41530
 411.97;   41.898;  -14.800;    0.000;56.69755
 412.13;  134.304;   61.500;    0.000;72.80423
 412.30;   31.608;  -49.400;    0.000;81.00826
 412.46;   60.575;   24.300;    0.000;36.27453
 412.63;  -27.884;  -95.300;    0.000;67.41617
 412.79;  -12.956;  -41.700;    0.000;28.74412
 412.95;  -22.024;  -69.800;    0.000;47.77576
 413.12;   40.784;   48.000;    0.000;-7.21634
 413.28;  176.072;   85.400;    0.000;90.67223
 413.45;   31.329;  -16.100;    0.000;47.42866
 413.61;  -44.047; -135.900;    0.000;91.85254
 413.77;   17.051;  -67.900;    0.000;84.95080
 413.94;   21.724;  -23.800;    0.000;45.52408
 414.10;  -12.031;  -32.400;    0.000;20.36943
 414.27;   59.321;   31.800;    0.000;27.52127
 414.43;  -28.777; -111.400;    0.000;82.62321
 414.59;  166.081;   90.900;    0.000;75.18085
 414.76;  174.707;  118.500;    0.000;56.20703
 414.92;  -25.455;  -59.300;    0.000;33.84464
 415.09;   89.681;   53.900;    0.000;35.78085
 415.25;  102.399;   55.100;    0.000;47.29877
 415.41;  101.560;   79.200;    0.000;22.36029
 415.58;   10.842;  -44.400;    0.000;55.24219
 415.74;  194.217;  157.100;    0.000;37.11723
 415.91;  171.048;  109.200;    0.000;61.84816
 416.07;   56.951;    7.300;    0.000;49.65116
 416.23;  -26.202;  -81.400;    0.000;55.19755
 416.40;  -25.521;  -92.300;    0.000;66.77944
 416.56;    5.987;  -77.500;    0.000;83.48683
 416.73;  100.944;   68.100;    0.000;32.84412
 416.89;   43.007;  -24.500;    0.000;67.50668
 417.05;   18.090;  -37.300;    0.000;55.39034
 417.22;   40.241;  -30.500;    0.000;70.74060
 417.38;   67.918;   20.700;    0.000;47.21846
 417.54;  101.210;   11.500;    0.000;89.71020
 417.71;   26.710;  -41.300;    0.000;68.01003
 417.87;   66.298;   -9.300;    0.000;75.59790
 418.04;   67.328;   22.800;    0.000;44.52760
 418.20;   75.343;   34.700;    0.000;40.64305
 418.36;   79.600;   20.900;    0.000;58.69983
 418.53;   81.932;   16.300;    0.000;65.63234
 418.69;  -22.304;  -71.600;    0.000;49.29561
 418.86;   79.908;   29.600;    0.000;50.30826
 419.02;   60.594;   53.900;    0.000; 6.69350
 419.18;   55.617;   12.500;    0.000;43.11652
 419.35;   36.343;   -7.200;    0.000;43.54325
 419.51;   90.427;   10.000;    0.000;80.42672
 419.67;  -14.310;  -32.700;    0.000;18.38999
 419.84;  127.530;   74.100;    0.000;53.43040
 420.00;   17.077;   -4.300;    0.000;21.37698
 420.17;   52.624;  -28.600;    0.000;81.22373
 420.33;   -4.583;  -24.900;    0.000;20.31688
 420.49;   38.825;  -51.400;    0.000;90.22460
 420.66;   80.819;   18.600;    0.000;62.21882
 420.82;   38.285;  -10.600;    0.000;48.88454
 420.98;   50.226;  -29.000;    0.000;79.22637
 421.15;   98.067;    4.200;    0.000;93.86749
 421.31;   48.225;  -31.800;    0.000;80.02514
 421.47;   16.179;  -73.400;    0.000;89.57944
 421.64;   84.411;   92.100;    0.000;-7.68874
 421.80;  143.619;  102.600;    0.000;41.01934
 421.97;    4.249;  -43.800;    0.000;48.04886
 422.13;   91.646;   -6.100;    0.000;97.74587
 422.29;   33.935;    3.100;    0.000;30.83498
 422.46;  127.035;   63.100;    0.000;63.93534
 422.62;  180.966;   91.000;    0.000;89.96626
 422.78;  -17.428;  -87.100;    0.000;69.67224
 422.95;  102.536;   52.000;    0.000;50.53621
 423.11;   -0.702;  -47.900;    0.000;47.19790
 423.27;  164.215;  104.800;    0.000;59.41478
 423.44;   20.840;   -9.500;    0.000;30.33990
 423.60;   56.233;   41.300;    0.000;14.93340
 423.77;   73.784;   53.300;    0.000;20.48402
 423.93;   76.909;   55.600;    0.000;21.30933
 424.09;  110.886;   53.700;    0.000;57.18647
 424.26;   64.051;  -22.000;    0.000;86.05132
 424.42;   -8.908;  -64.900;    0.000;55.99193
 424.58;   12.592;  -21.600;    0.000;34.19157
 424.75;    7.123;  -13.800;    0.000;20.92285
 424.91;   19.261;  -42.400;    0.000;61.66081
 425.07;   45.983;  -19.400;    0.000;65.38296
 425.24;  119.179;   96.900;    0.000;22.27856
 425.40;   50.250;  -12.800;    0.000;63.05010
 425.56;   -2.083;  -57.800;    0.000;55.71688
 425.73;   21.098;  -43.000;    0.000;64.09754
 425.89;   -1.542;  -47.100;    0.000;45.55800
 426.05;   30.247;  -52.900;    0.000;83.14658
 426.22;   25.527;   -4.100;    0.000;29.62743
 426.38;   35.115;  -34.800;    0.000;69.91459
 426.55;   86.536;   55.100;    0.000;31.43638
 426.71;  -58.508;  -71.100;    0.000;12.59192
 426.87;   58.605;    8.500;    0.000;50.10458
 427.04;   37.057;  -12.700;    0.000;49.75694
 427.20;  106.796;   72.800;    0.000;33.99632
 427.36;   25.942;   -0.700;    0.000;26.64218
 427.53;  -17.743;  -66.900;    0.000;49.15678
 427.69;  -59.266;  -84.400;    0.000;25.13357
 427.85;  -67.486;  -96.900;    0.000;29.41442
 428.02;  -51.678; -148.500;    0.000;96.82250
 428.18;   -3.738;  -34.100;    0.000;30.36223
 428.34;   55.995;   24.400;    0.000;31.59490
 428.51;  207.527;  192.100;    0.000;15.42671
 428.67;  -13.938;  -59.000;    0.000;45.06239
 428.83;  172.275;  141.500;    0.000;30.77541
 429.00;   96.834;    8.200;    0.000;88.63357
 429.16;   16.148;  -21.200;    0.000;37.34799
 429.32;   65.939;   57.900;    0.000; 8.03867
 429.49;   -9.979;  -34.100;    0.000;24.12127
 429.65;   94.804;   42.700;    0.000;52.10387
 429.81;    7.909;  -64.100;    0.000;72.00897
 429.98;   86.562;   23.500;    0.000;63.06239
 430.14;   86.651;   50.000;    0.000;36.65080
 430.30;  -49.475;  -65.800;    0.000;16.32479
 430.47;   71.239;   21.500;    0.000;49.73867
 430.63;  -47.854; -104.600;    0.000;56.74587
 430.79;  -48.227;  -79.700;    0.000;31.47294
 430.96;    7.228;  -55.800;    0.000;63.02760
 431.12;   37.892;   -0.600;    0.000;38.49228
 431.28;   32.230;   -1.000;    0.000;33.22970
 431.45;   46.903;  -17.000;    0.000;63.90335
 431.61;  103.721;   43.200;    0.000;60.52092
 431.77;  102.046;   84.700;    0.000;17.34641
 431.94;  138.602;   85.500;    0.000;53.10178
 432.10;  -26.053;  -79.800;    0.000;53.74729
 432.26;   92.395;   60.900;    0.000;31.49525
 432.43;  106.827;   66.900;    0.000;39.92672
 432.59;  -83.294; -127.900;    0.000;44.60580
 432.75;  260.894;  199.200;    0.000;61.69438
 432.92;  246.592;  208.800;    0.000;37.79192
 433.08;   32.290;   15.700;    0.000;16.59034
 433.24;   59.176;  -37.300;    0.000;96.47646
 433.41;   49.870;  -19.800;    0.000;69.66978
 433.57;  113.869;   42.000;    0.000;71.86907
 433.73;  184.215;   52.100;    0.000;132.11530
 433.89;  316.755;    7.100;    0.000;309.65500
 434.06; 1147.188;   67.600;    0.000;1079.58836
 434.22; 1979.062;   55.800;    0.000;1923.26238
 434.38; 1317.633;  123.100;    0.000;1194.53306
 434.55;  216.383;  -85.300;    0.000;301.68260
 434.71;   97.640;    3.200;    0.000;94.43989
 434.87;  -12.639;  -65.300;    0.000;52.66081
 435.04;  -48.176;  -95.000;    0.000;46.82443
 435.20;   57.431;   20.800;    0.000;36.63076
 435.36;  -89.420; -108.100;    0.000;18.67979
 435.53;  116.506;   83.700;    0.000;32.80616
 435.69;   35.590;   12.200;    0.000;23.38982
 435.85;   30.507;   33.200;    0.000;-2.69332
 436.02;   31.744;   36.200;    0.000;-4.45588
 436.18;  119.223;  114.900;    0.000; 4.32320
 436.34;   48.328;   19.700;    0.000;28.62830
 436.50;   16.928;   -4.500;    0.000;21.42795
 436.67;  131.964;   97.600;    0.000;34.36381
 436.83;    8.526;  -73.900;    0.000;82.42566
 436.99;   19.165;  -20.400;    0.000;39.56468
 437.16;  141.776;   68.500;    0.000;73.27557
 437.32;   48.486;   26.600;    0.000;21.88595
 437.48;   43.367;  -17.900;    0.000;61.26714
 437.65;   40.231;   18.600;    0.000;21.63076
 437.81;  113.947;   77.900;    0.000;36.04658
 437.97;  107.066;   54.000;    0.000;53.06610
 438.13;   82.034;   71.100;    0.000;10.93428
 438.30;   81.271;   54.800;    0.000;26.47136
 438.46;  -10.068;  -31.000;    0.000;20.93234
 438.62;   23.653;  -30.500;    0.000;54.15274
 438.79;  -31.848;  -72.800;    0.000;40.95220
 438.95;   10.243;   14.000;    0.000;-3.75675
 439.11;  189.872;  134.300;    0.000;55.57153
 439.28;  138.003;   37.600;    0.000;100.40264
 439.44;   53.781;  -53.300;    0.000;107.08137
 439.60;  -34.973;  -74.100;    0.000;39.12672
 439.76;  -18.971;  -67.500;    0.000;48.52918
 439.93;  170.146;  156.700;    0.000;13.44571
 440.09;  -42.072; -107.500;    0.000;65.42830
 440.25;   76.674;   50.300;    0.000;26.37417
 440.42;   62.912;   13.200;    0.000;49.71195
 440.58;   83.139;   41.300;    0.000;41.83867
 440.74;   33.096;  -41.300;    0.000;74.39579
 440.90;   13.675;  -32.700;    0.000;46.37488
 441.07;   -8.961;  -58.100;    0.000;49.13867
 441.23;  211.111;  160.900;    0.000;50.21072
 441.39;   40.008;  -33.100;    0.000;73.10826
 441.56;  100.631;   29.500;    0.000;71.13111
 441.72;   90.311;   36.900;    0.000;53.41107
 441.88;   68.480;   22.700;    0.000;45.78050
 442.04;  -87.728; -119.600;    0.000;31.87224
 442.21;   70.653;   24.800;    0.000;45.85326
 442.37;   91.768;   58.200;    0.000;33.56766
 442.53;  -15.629;  -52.800;    0.000;37.17101
 442.70;   22.484;  -42.000;    0.000;64.48418
 442.86;  -11.756;  -49.200;    0.000;37.44412
 443.02;   40.969;  -28.500;    0.000;69.46872
 443.18;   48.577;   44.000;    0.000; 4.57734
 443.35;   25.008;  -36.100;    0.000;61.10826
 443.51;  133.126;   95.400;    0.000;37.72637
 443.67;  -69.989; -136.800;    0.000;66.81055
 443.84;   10.893;  -48.200;    0.000;59.09315
 444.00;   -8.873;  -65.300;    0.000;56.42725
 444.16;  -45.907;  -72.000;    0.000;26.09299
 444.32;   77.227;   31.400;    0.000;45.82724
 444.49;   -1.933;  -33.100;    0.000;31.16732
 444.65;   37.460;  -25.800;    0.000;63.26029
 444.81;   78.196;   25.200;    0.000;52.99632
 444.97;  -20.502;  -75.800;    0.000;55.29755
 445.14;   24.743;  -41.600;    0.000;66.34254
 445.30;  -65.778; -118.200;    0.000;52.42249
 445.46;  129.600;  117.200;    0.000;12.40019
 445.63;   -0.428;  -53.300;    0.000;52.87224
 445.79;   64.816;   56.700;    0.000; 8.11565
 445.95;   91.127;   33.500;    0.000;57.62724
 446.11;  114.950;   45.800;    0.000;69.15010
 446.28;  132.358;   43.200;    0.000;89.15817
 446.44;   17.152;  -47.600;    0.000;64.75167
 446.60;  156.104;   64.300;    0.000;91.80421
 446.76;   55.318;    1.800;    0.000;53.51775
 446.93;   65.521;    8.900;    0.000;56.62127
 447.09;   46.060;    0.500;    0.000;45.56029
 447.25;   14.598;  -43.000;    0.000;57.59842
 447.41;  163.243;  101.300;    0.000;61.94305
 447.58;  -78.808;  -92.700;    0.000;13.89209
 447.74;  -27.791;  -48.200;    0.000;20.40897
 447.90;  -52.309;  -83.200;    0.000;30.89051
 448.07;   78.686;   59.600;    0.000;19.08560
 448.23;   58.036;   21.000;    0.000;37.03586
 448.39;   43.246;    5.200;    0.000;38.04570
 448.55;   30.883;  -38.100;    0.000;68.98295
 448.72;   51.183;  -16.200;    0.000;67.38314
 448.88;  155.046;   87.600;    0.000;67.44587
 449.04;  -36.237;  -98.200;    0.000;61.96345
 449.20;  116.462;   45.700;    0.000;70.76204
 449.37;   24.790;    2.900;    0.000;21.88999
 449.53;  -58.185;  -69.500;    0.000;11.31459
 449.69;  -38.088;  -95.900;    0.000;57.81213
 449.85;   23.867;   -7.300;    0.000;31.16731
 450.02;   50.151;  -17.300;    0.000;67.45097
 450.18;   19.963;  -35.900;    0.000;55.86292
 450.34;    1.367;  -20.000;    0.000;21.36662
 450.50;  159.966;  111.700;    0.000;48.26643
 450.67;   77.729;   12.800;    0.000;64.92901
 450.83;  150.428;   79.600;    0.000;70.82760
 450.99;   81.525;   44.000;    0.000;37.52496
 451.15;    1.978;  -45.200;    0.000;47.17750
 451.32;   65.199;   39.000;    0.000;26.19861
 451.48;  -72.793;  -75.900;    0.000; 3.10703
 451.64;  -19.838;  -28.300;    0.000; 8.46239
 451.80;  -96.459; -117.800;    0.000;21.34148
 451.97;  -34.582;  -63.400;    0.000;28.81846
 452.13;    2.520;  -55.500;    0.000;58.01969
 452.29; -117.869; -156.000;    0.000;38.13076
 452.45;   13.208;  -42.400;    0.000;55.60791
 452.61;   79.271;    3.900;    0.000;75.37101
 452.78;   48.609;   -5.100;    0.000;53.70897
 452.94;   -7.598;  -84.300;    0.000;76.70177
 453.10;   58.408;   -7.500;    0.000;65.90826
 453.26;   20.631;  -13.200;    0.000;33.83111
 453.43;   12.105;  -58.800;    0.000;70.90545
 453.59;  -16.583;  -41.400;    0.000;24.81688
 453.75;   30.672;    6.200;    0.000;24.47188
 453.91;  106.595;   47.700;    0.000;58.89525
 454.08;   11.690;  -53.000;    0.000;64.68964
 454.24;  161.193;  136.700;    0.000;24.49315
 454.40;   17.053;  -34.800;    0.000;51.85290
 454.56;   73.792;    2.100;    0.000;71.69157
 454.73;  172.302;  161.800;    0.000;10.50194
 454.89; -124.392; -173.200;    0.000;48.80826
 455.05;   80.354;   62.700;    0.000;17.65413
 455.21;   82.243;   56.500;    0.000;25.74254
 455.37;  102.418;   45.000;    0.000;57.41846
 455.54;  109.727;   71.700;    0.000;38.02673
 455.70;  -29.738;  -71.000;    0.000;41.26169
 455.86;  -24.350;  -51.800;    0.000;27.45009
 456.02;   75.505;   35.400;    0.000;40.10474
 456.19;   37.873;    1.600;    0.000;36.27294
 456.35;   -9.995;  -48.300;    0.000;38.30474
 456.51;   21.444;  -42.900;    0.000;64.34448
 456.67;  142.236;   68.400;    0.000;73.83602
 456.83;  181.675;  131.300;    0.000;50.37488
 457.00;   24.046;  -46.900;    0.000;70.94570
 457.16;   46.407;  -27.100;    0.000;73.50687
 457.32;   58.031;  -12.000;    0.000;70.03128
 457.48;  109.673;   45.100;    0.000;64.57294
 457.65;  128.951;   56.200;    0.000;72.75080
 457.81;   90.994;   41.300;    0.000;49.69403
 457.97;   -5.981;  -86.300;    0.000;80.31898
 458.13;  163.966;  104.100;    0.000;59.86591
 458.29;   24.118;  -81.500;    0.000;105.61794
 458.46;   19.501;  -61.000;    0.000;80.50125
 458.62;   41.731;    1.600;    0.000;40.13093
 458.78;  180.439;  146.300;    0.000;34.13937
 458.94;  103.019;   67.000;    0.000;36.01898
 459.11;  127.303;  106.400;    0.000;20.90299
 459.27;   33.786;   21.100;    0.000;12.68577
 459.43;   -8.380;  -28.800;    0.000;20.42039
 459.59;   43.729;   13.500;    0.000;30.22882
 459.75;  -21.453;  -54.800;    0.000;33.34728
 459.92;  232.994;  190.900;    0.000;42.09404
 460.08;  -30.381;  -60.500;    0.000;30.11881
 460.24;  -75.479; -151.200;    0.000;75.72091
 460.40;  100.264;   93.400;    0.000; 6.86381
 460.56;  -67.782;  -96.000;    0.000;28.21775
 460.73;   39.978;    0.300;    0.000;39.67821
 460.89;   40.943;    8.500;    0.000;32.44341
 461.05;   15.006;  -55.600;    0.000;70.60580
 461.21;   28.351;  -36.100;    0.000;64.45097
 461.37;   55.462;   42.100;    0.000;13.36152
 461.54;   82.884;   19.400;    0.000;63.48419
 461.70;   55.782;    7.100;    0.000;48.68244
 461.86;  103.960;   66.000;    0.000;37.96046
 462.02;   78.547;   40.700;    0.000;37.84729
 462.18;  -44.370;  -67.300;    0.000;22.93041
 462.35;  172.240;  169.400;    0.000; 2.83990
 462.51;  -23.529;  -70.800;    0.000;47.27066
 462.67;  -80.074; -102.200;    0.000;22.12637
 462.83;  121.804;   79.400;    0.000;42.40404
 462.99;   44.122;   -2.600;    0.000;46.72162
 463.16;  103.123;    0.500;    0.000;102.62285
 463.32;   47.148;  -42.100;    0.000;89.24816
 463.48;  182.095;   39.900;    0.000;142.19526
 463.64;  204.113;  103.600;    0.000;100.51284
 463.80;   79.741;    3.800;    0.000;75.94096
 463.97;   20.105;  -12.700;    0.000;32.80458
 464.13;   49.241;   43.500;    0.000; 5.74148
 464.29;   59.188;    4.100;    0.000;55.08841
 464.45;   28.227;  -28.300;    0.000;56.52724
 464.61;   74.208;   52.800;    0.000;21.40774
 464.77;   13.530;  -58.600;    0.000;72.12988
 464.94;   54.810;    7.800;    0.000;47.00984
 465.10;   40.286;   -5.800;    0.000;46.08612
 465.26; -126.435; -141.200;    0.000;14.76503
 465.42;   65.896;    5.700;    0.000;60.19648
 465.58;   61.139;   32.900;    0.000;28.23902
 465.75;    1.104;  -27.400;    0.000;28.50387
 465.91;   27.954;  -15.400;    0.000;43.35361
 466.07;   52.118;    9.700;    0.000;42.41775
 466.23;   35.135;  -23.300;    0.000;58.43463
 466.39;   30.393;  -18.200;    0.000;48.59332
 466.56;   62.366;   33.600;    0.000;28.76627
 466.72;  -92.555; -124.500;    0.000;31.94464
 466.88;   -2.332;  -26.700;    0.000;24.36820
 467.04;  118.251;   74.100;    0.000;44.15097
 467.20;   22.475;  -39.900;    0.000;62.37540
 467.36;  148.043;   47.500;    0.000;100.54271
 467.53;   29.686;   -7.000;    0.000;36.68595
 467.69;  -41.537; -100.100;    0.000;58.56291
 467.85;  -12.932;  -24.700;    0.000;11.76785
 468.01;  -81.448; -130.400;    0.000;48.95184
 468.17;  123.195;   63.300;    0.000;59.89544
 468.33;   12.241;    7.100;    0.000; 5.14096
 468.50;  -31.296;  -78.300;    0.000;47.00352
 468.66;   82.635;   14.600;    0.000;68.03480
 468.82;  -17.802;  -89.800;    0.000;71.99790
 468.98;   24.986;  -22.700;    0.000;47.68612
 469.14;   32.254;  -10.300;    0.000;42.55361
 469.30;  -15.288;  -69.800;    0.000;54.51178
 469.47;  101.717;   88.300;    0.000;13.41723
 469.63;  -61.286;  -97.400;    0.000;36.11372
 469.79;   46.930;   14.900;    0.000;32.03024
 469.95;   85.479;   75.200;    0.000;10.27909
 470.11;  -77.125; -116.500;    0.000;39.37453
 470.27;    5.956;   -6.800;    0.000;12.75642
 470.44;   -4.240;  -26.100;    0.000;21.85958
 470.60;   -9.580;   -6.500;    0.000;-3.08031
 470.76;   44.499;   26.400;    0.000;18.09860
 470.92;  -79.318;  -96.800;    0.000;17.48173
 471.08;   76.558;   24.300;    0.000;52.25836
 471.24;   12.193;  -58.800;    0.000;70.99280
 471.41;  -13.225;  -15.200;    0.000; 1.97453
 471.57;   39.497;   -8.600;    0.000;48.09719
 471.73;  -81.856; -104.200;    0.000;22.34377
 471.89;   46.513;   -5.000;    0.000;51.51301
 472.05;   32.241;   23.300;    0.000; 8.94096
 472.21;  -40.273; -104.700;    0.000;64.42689
 472.38;   79.245;   25.100;    0.000;54.14518
 472.54;  176.109;   98.800;    0.000;77.30861
 472.70;  117.940;   49.900;    0.000;68.03973
 472.86;   45.734;   13.600;    0.000;32.13357
 473.02;  -61.580; -103.600;    0.000;42.02039
 473.18;  -40.885;  -84.500;    0.000;43.61459
 473.34;   27.366;    3.100;    0.000;24.26643
 473.51;    0.105;  -40.900;    0.000;41.00458
 473.67;   89.580;   54.100;    0.000;35.48050
 473.83;   18.516;  -27.100;    0.000;45.61617
 473.99;   66.163;   53.300;    0.000;12.86275
 474.15;  229.314;  174.600;    0.000;54.71423
 474.31;    0.975;  -32.200;    0.000;33.17453
 474.47;  -72.995;  -87.300;    0.000;14.30510
 474.64;   -9.004;  -76.600;    0.000;67.59631
 474.80;  -64.082;  -77.800;    0.000;13.71776
 474.96;  -37.615;  -37.800;    0.000; 0.18454
 475.12;   38.067;    6.900;    0.000;31.16749
 475.28;   39.726;    4.400;    0.000;35.32637
 475.44;  133.125;  116.000;    0.000;17.12479
 475.60;   55.801;   22.700;    0.000;33.10141
 475.77;  -28.279;  -82.500;    0.000;54.22056
 475.93;   35.334;    4.500;    0.000;30.83392
 476.09;  -61.537;  -86.100;    0.000;24.56274
 476.25;   82.736;   36.600;    0.000;46.13622
 476.41;   18.498;  -52.700;    0.000;71.19754
 476.57;   42.363;    5.800;    0.000;36.56310
 476.73;  -92.867; -161.200;    0.000;68.33270
 476.90;   84.249;   41.700;    0.000;42.54939
 477.06;  -14.089;  -38.700;    0.000;24.61091
 477.22;   90.936;   87.000;    0.000; 3.93621
 477.38;  -31.476;  -81.200;    0.000;49.72443
 477.54;  -19.442;  -25.400;    0.000; 5.95835
 477.70;  -34.337;  -70.700;    0.000;36.36310
 477.86;   29.105;   -0.700;    0.000;29.80510
 478.03;  317.501;  261.200;    0.000;56.30069
 478.19;   55.498;   24.600;    0.000;30.89790
 478.35;   -1.843;   -1.800;    0.000;-0.04271
 478.51;   39.445;  -19.900;    0.000;59.34483
 478.67;    6.942;  -30.100;    0.000;37.04219
 478.83;  -64.169; -113.600;    0.000;49.43076
 478.99;   -4.701;  -50.400;    0.000;45.69913
 479.15;  120.634;  127.600;    0.000;-6.96589
 479.32;  -45.423;  -78.100;    0.000;32.67733
 479.48;    0.518;  -38.500;    0.000;39.01811
 479.64;   -1.725;  -51.400;    0.000;49.67469
 479.80;   19.778;   12.700;    0.000; 7.07840
 479.96;   59.792;    3.600;    0.000;56.19209
 480.12;   23.043;  -12.100;    0.000;35.14341
 480.28;   12.810;  -30.600;    0.000;43.40984
 480.44;  -23.043;  -41.600;    0.000;18.55713
 480.61;   46.132;  -12.100;    0.000;58.23199
 480.77;  -89.250;  -99.800;    0.000;10.55045
 480.93;  -85.033; -130.700;    0.000;45.66749
 481.09;   62.084;  -11.500;    0.000;73.58366
 481.25;   -2.799;  -62.500;    0.000;59.70106
 481.41;   89.043;   34.100;    0.000;54.94289
 481.57;  158.287;  117.600;    0.000;40.68682
 481.73;  -31.935;  -46.900;    0.000;14.96539
 481.89;  -23.362;  -20.300;    0.000;-3.06221
 482.06;   19.728;  -14.300;    0.000;34.02830
 482.22;   97.543;   67.700;    0.000;29.84306
 482.38;   18.953;   -3.400;    0.000;22.35326
 482.54;   89.866;   64.500;    0.000;25.36591
 482.70;    5.272;  -30.100;    0.000;35.37153
 482.86;  -38.530;  -66.500;    0.000;27.96995
 483.02;  132.582;  126.500;    0.000; 6.08173
 483.18;   54.847;   -9.200;    0.000;64.04658
 483.34;   89.445;   39.600;    0.000;49.84535
 483.51;  -10.227;  -68.700;    0.000;58.47346
 483.67;  158.814;  113.900;    0.000;44.91372
 483.83;  220.862;  132.300;    0.000;88.56204
 483.99;  414.130;  382.800;    0.000;31.33026
 484.15;  -17.749; -134.600;    0.000;116.85133
 484.31;   93.979;   29.400;    0.000;64.57856
 484.47;   67.288;    8.900;    0.000;58.38770
 484.63;   64.817;  -10.800;    0.000;75.61669
 484.79;  143.472;   18.300;    0.000;125.17205
 484.95;  160.610;   45.000;    0.000;115.60968
 485.12;  167.756;   12.300;    0.000;155.45571
 485.28;  220.087;   63.400;    0.000;156.68717
 485.44;  277.913;   63.800;    0.000;214.11336
 485.60;  368.875;   19.700;    0.000;349.17451
 485.76;  537.178;  -34.600;    0.000;571.77785
 485.92; 1333.120;   94.300;    0.000;1238.81999
 486.08; 6929.958;   22.400;    0.000;6907.55801
 486.24;18707.621;  -92.400;    0.000;18800.02110
 486.40;14740.388;   14.500;    0.000;14725.88770
 486.56; 4777.432;   63.400;    0.000;4714.03164
 486.73;  948.236;  -69.500;    0.000;1017.73584
 486.89;  379.442;    4.100;    0.000;375.34183
 487.05;  173.170;  -55.600;    0.000;228.77030
 487.21;  283.663;  123.100;    0.000;160.56275
 487.37;  164.302;   10.300;    0.000;154.00211
 487.53;  214.388;   92.300;    0.000;122.08841
 487.69;  138.604;   -1.700;    0.000;140.30422
 487.85;   36.689;  -24.300;    0.000;60.98876
 488.01;   75.448;    6.100;    0.000;69.34816
 488.17;   30.024;  -47.200;    0.000;77.22443
 488.33;  102.922;  -10.700;    0.000;113.62162
 488.49;   78.471;   16.500;    0.000;61.97066
 488.66;   88.196;   53.700;    0.000;34.49596
 488.82;   11.185;  -66.700;    0.000;77.88524
 488.98;  130.203;   55.000;    0.000;75.20317
 489.14;  155.988;  138.600;    0.000;17.38770
 489.30;  -33.708; -115.600;    0.000;81.89209
 489.46;   45.837;   17.700;    0.000;28.13657
 489.62; -100.672; -129.100;    0.000;28.42847
 489.78;   86.679;   49.600;    0.000;37.07927
 489.94;  -28.918;  -77.000;    0.000;48.08173
 490.10;  131.252;   87.800;    0.000;43.45168
 490.26;  -33.484;  -93.700;    0.000;60.21617
 490.42;  -24.761;  -50.000;    0.000;25.23902
 490.58;   76.137;    4.400;    0.000;71.73673
 490.75;   23.288;  -45.400;    0.000;68.68770
 490.91;   35.507;  -21.400;    0.000;56.90668
 491.07;  186.596;  121.900;    0.000;64.69596
 491.23;  123.912;   57.600;    0.000;66.31230
 491.39;   93.178;   34.400;    0.000;58.77821
 491.55;  122.943;   76.200;    0.000;46.74271
 491.71;   33.175;    7.300;    0.000;25.87488
 491.87;  112.634;   84.600;    0.000;28.03357
 492.03;   55.674;   -1.600;    0.000;57.27382
 492.19;   48.226;   -5.700;    0.000;53.92601
 492.35;  -18.498;  -47.600;    0.000;29.10229
 492.51;  223.763;  173.900;    0.000;49.86311
 492.67;   52.094;    8.100;    0.000;43.99367
 492.83;   74.651;  -43.700;    0.000;118.35061
 493.00;  157.592;   32.500;    0.000;125.09157
 493.16;  138.834;   30.500;    0.000;108.33392
 493.32;  246.034;  162.200;    0.000;83.83392
 493.48;  141.396;   26.900;    0.000;114.49597
 493.64;  180.993;   33.500;    0.000;147.49350
 493.80;  135.466;   71.100;    0.000;64.36608
 493.96;  149.707;   81.400;    0.000;68.30668
 494.12;   -5.161;  -59.800;    0.000;54.63902
 494.28;   84.643;   73.500;    0.000;11.14254
 494.44;   86.222;   51.800;    0.000;34.42163
 494.60;    7.482;   -8.300;    0.000;15.78208
 494.76;   42.600;   11.600;    0.000;31.00000
 494.92;   20.593;  -28.400;    0.000;48.99315
 495.08;   -1.014;  -47.900;    0.000;46.88612
 495.24;  132.378;   49.900;    0.000;82.47820
 495.40;  122.304;   93.600;    0.000;28.70422
 495.56;  120.538;   80.800;    0.000;39.73814
 495.73;  -29.535;  -72.400;    0.000;42.86520
 495.89;  310.832;  247.400;    0.000;63.43219
 496.05;   57.746;   28.900;    0.000;28.84622
 496.21;   59.975;   53.800;    0.000; 6.17488
 496.37;  -12.514;  -18.900;    0.000; 6.38647
 496.53;   63.159;   29.200;    0.000;33.95887
 496.69;   25.794;  -48.200;    0.000;73.99403
 496.85;   58.622;   22.700;    0.000;35.92198
 497.01;  -57.163;  -98.400;    0.000;41.23673
 497.17;  -48.104;  -76.400;    0.000;28.29632
 497.33;   67.548;   34.100;    0.000;33.44816
 497.49;   75.325;   22.700;    0.000;52.62478
 497.65;   73.568;   27.500;    0.000;46.06785
 497.81;   -6.519;  -68.200;    0.000;61.68085
 497.97;   26.083;  -55.600;    0.000;81.68260
 498.13;  -68.633;  -87.700;    0.000;19.06714
 498.29;   45.853;   27.100;    0.000;18.75274
 498.45;  -21.027;  -48.600;    0.000;27.57294
 498.61;   86.873;   40.000;    0.000;46.87311
 498.77;  -54.646;  -73.100;    0.000;18.45432
 498.93;  -22.662;  -63.600;    0.000;40.93779
 499.09;   14.132;   13.100;    0.000; 1.03234
 499.25;   -8.731;  -38.500;    0.000;29.76872
 499.41;   44.275;   -4.200;    0.000;48.47488
 499.58;  -20.151;  -58.700;    0.000;38.54887
 499.74;   97.005;   39.600;    0.000;57.40458
 499.90;  107.500;   69.500;    0.000;38.00000
 500.06;   82.461;   49.700;    0.000;32.76081
 500.22;  -92.331;  -81.800;    0.000;-10.53128
 500.38;  -70.883;  -90.200;    0.000;19.31723
 500.54;   -8.972;  -45.200;    0.000;36.22795
 500.70;   64.899;   18.400;    0.000;46.49912
 500.86;  -14.007;  -86.800;    0.000;72.79332
 501.02;  117.286;   67.700;    0.000;49.58631
 501.18;   47.637;   13.500;    0.000;34.13673
 501.34;   52.440;   23.700;    0.000;28.74025
 501.50;  183.561;   72.100;    0.000;111.46064
 501.66;   85.499;   17.000;    0.000;68.49948
 501.82;   80.858;   -7.100;    0.000;87.95800
 501.98;   60.811;   31.200;    0.000;29.61126
 502.14;  -40.560;  -81.300;    0.000;40.74025
 502.30;   63.249;   44.800;    0.000;18.44851
 502.46;  -41.231;  -80.400;    0.000;39.16872
 502.62;  123.600;  118.100;    0.000; 5.49983
 502.78;   81.250;   24.600;    0.000;56.65009
 502.94;   77.414;   78.200;    0.000;-0.78629
 503.10;  -29.018;  -73.200;    0.000;44.18225
 503.26;  100.127;   49.500;    0.000;50.62708
 503.42; -169.480; -190.900;    0.000;21.41968
 503.58;   60.106;    8.600;    0.000;51.50580
 503.74;   25.271;   43.200;    0.000;-17.92883
 503.90;   -6.470;  -32.900;    0.000;26.43041
 504.06;   62.269;   21.500;    0.000;40.76907
 504.22;   76.203;   28.200;    0.000;48.00264
 504.38;   -5.629;  -43.400;    0.000;37.77066
 504.54;  131.312;  122.100;    0.000; 9.21214
 504.70;   28.002;  -30.500;    0.000;58.50158
 504.86;  -53.263;  -72.700;    0.000;19.43692
 505.02;  -33.496;  -48.400;    0.000;14.90352
 505.18;   89.430;   59.100;    0.000;30.33041
 505.34;   63.030;   42.200;    0.000;20.82970
 505.50;  -23.637;  -32.300;    0.000; 8.66345
 505.66;  -55.563;  -97.100;    0.000;41.53709
 505.82;   54.752;    9.700;    0.000;45.05151
 505.98;  102.994;   21.200;    0.000;81.79438
 506.14;   62.912;   56.400;    0.000; 6.51213
 506.30;  -29.570;  -65.600;    0.000;36.03005
 506.46;   12.172;   -8.800;    0.000;20.97224
 506.62;   20.395;  -37.500;    0.000;57.89474
 506.78;   31.112;   14.500;    0.000;16.61249
 506.94;  118.276;   33.700;    0.000;84.57576
 507.10;   13.089;  -22.000;    0.000;35.08876
 507.26;  139.254;   71.700;    0.000;67.55379
 507.42;   27.857;    0.600;    0.000;27.25713
 507.58;   -1.738;  -44.500;    0.000;42.76204
 507.74;  106.630;   91.600;    0.000;15.02953
 507.90;   56.262;   27.500;    0.000;28.76168
 508.06;   36.491;  -23.000;    0.000;59.49051
 508.22;   64.162;   11.900;    0.000;52.26239
 508.38;   73.725;   22.100;    0.000;51.62514
 508.54;   10.816;  -30.100;    0.000;40.91636
 508.70;   63.960;   17.800;    0.000;46.15994
 508.86;  101.251;   63.500;    0.000;37.75132
 509.02;   -9.841;  -17.700;    0.000; 7.85942
 509.18;   78.029;   29.000;    0.000;49.02882
 509.34;   39.051;   42.100;    0.000;-3.04920
 509.50;   95.689;   19.900;    0.000;75.78929
 509.66;  -56.949;  -84.500;    0.000;27.55116
 509.82; -135.259; -171.700;    0.000;36.44147
 509.98;   39.808;   35.000;    0.000; 4.80774
 510.14;   42.162;   43.900;    0.000;-1.73832
 510.30;   49.126;    8.900;    0.000;40.22602
 510.46;  -46.308;  -62.300;    0.000;15.99157
 510.62;   52.731;    4.500;    0.000;48.23095
 510.78;   68.683;   11.400;    0.000;57.28331
 510.94;  -19.586;  -45.100;    0.000;25.51371
 511.10;    1.982;  -51.900;    0.000;53.88173
 511.26;  -26.956;  -52.500;    0.000;25.54360
 511.42;  109.588;   54.100;    0.000;55.48841
 511.58;  117.722;  102.900;    0.000;14.82233
 511.74;   64.660;   -9.300;    0.000;73.96010
 511.90;   -3.495;  -13.800;    0.000;10.30458
 512.06;   31.454;  -17.300;    0.000;48.75413
 512.22;   79.955;   77.300;    0.000; 2.65467
 512.38;  -32.792;  -76.000;    0.000;43.20810
 512.54;  -65.777;  -49.800;    0.000;-15.97715
 512.70;  -68.463;  -98.000;    0.000;29.53744
 512.86;   28.470;   -4.800;    0.000;33.27049
 513.02;  -25.391;  -45.000;    0.000;19.60862
 513.18;  102.520;   43.900;    0.000;58.62039
 513.34;  -28.485;  -57.800;    0.000;29.31494
 513.50;  -32.933;  -59.900;    0.000;26.96714
 513.66;   -5.505;  -41.800;    0.000;36.29509
 513.82;  -10.282;  -69.600;    0.000;59.31810
 513.98;   51.586;   20.300;    0.000;31.28647
 514.14;   52.339;   12.600;    0.000;39.73937
 514.30;   34.179;   18.900;    0.000;15.27944
 514.46;   50.298;   31.800;    0.000;18.49825
 514.61;  120.269;   88.000;    0.000;32.26942
 514.77;  -16.516;  -29.900;    0.000;13.38366
 514.93;  -13.591;  -53.200;    0.000;39.60949
 515.09;   76.195;   51.400;    0.000;24.79509
 515.25;   56.537;    3.400;    0.000;53.13709
 515.41;    1.521;   -0.700;    0.000; 2.22146
 515.57;   51.766;   25.800;    0.000;25.96556
 515.73;   91.382;   57.200;    0.000;34.18243
 515.89;   52.377;  -14.400;    0.000;66.77698
 516.05;   -4.075;  -29.300;    0.000;25.22514
 516.21;  -24.431;  -62.700;    0.000;38.26908
 516.37;    0.466;  -20.400;    0.000;20.86626
 516.53;   -7.058;  -14.400;    0.000; 7.34218
 516.69;    4.682;  -13.300;    0.000;17.98243
 516.85;  -17.710;  -51.600;    0.000;33.89015
 517.01;   49.495;   41.300;    0.000; 8.19474
 517.17;   49.308;   21.500;    0.000;27.80826
 517.33;   59.631;   16.600;    0.000;43.03059
 517.49;   -7.760;  -43.000;    0.000;35.24025
 517.65;  -33.712;  -63.200;    0.000;29.48824
 517.81;   39.901;  -22.100;    0.000;62.00142
 517.97;   52.283;   10.700;    0.000;41.58331
 518.13;    7.702;  -48.000;    0.000;55.70229
 518.28;   72.175;   34.400;    0.000;37.77523
 518.44;  -40.356;  -81.000;    0.000;40.64447
 518.60;  -33.569;  -41.400;    0.000; 7.83147
 518.76;  -49.178;  -60.700;    0.000;11.52250
 518.92;    5.428;    1.900;    0.000; 3.52760
 519.08;   29.896;    2.200;    0.000;27.69596
 519.24;   43.484;   16.000;    0.000;27.48402
 519.40;   56.670;    7.100;    0.000;49.57030
 519.56;  -35.802;  -17.100;    0.000;-18.70175
 519.72;   70.511;   27.900;    0.000;42.61080
 519.88;    2.111;  -15.600;    0.000;17.71106
 520.04; -130.789; -170.500;    0.000;39.71132
 520.20;  -27.588;  -78.200;    0.000;50.61156
 520.36;    7.512;  -53.000;    0.000;60.51182
 520.52;  -32.688;  -44.900;    0.000;12.21208
 520.68;  -46.588;  -61.400;    0.000;14.81233
 520.84;  -34.287;  -10.600;    0.000;-23.68741
 520.99;  -73.287; -111.900;    0.000;38.61284
 521.15;   82.713;   54.300;    0.000;28.41309
 521.31;   20.413;  -18.900;    0.000;39.31335
 521.47;  -39.386;  -36.700;    0.000;-2.68640
 521.63;  102.214;   75.400;    0.000;26.81385
 521.79;  218.014;  184.500;    0.000;33.51411
 521.95;   50.714;   22.500;    0.000;28.21436
 522.11;  -11.985;   13.800;    0.000;-25.78538
 522.27;  -48.585;  -43.300;    0.000;-5.28513
 522.43;   65.215;   52.500;    0.000;12.71513
 522.59;    5.615;  -25.600;    0.000;31.21538
 522.75;   36.316;   -1.300;    0.000;37.61564
 522.91;   26.716;  -18.200;    0.000;44.91589
 523.07;   46.616;   33.900;    0.000;12.71614
 523.23;   89.616;   24.300;    0.000;65.31639
 523.38;  -43.283;  -85.700;    0.000;42.41665
 523.54;   34.417;  -10.200;    0.000;44.61690
 523.70;   -5.583;  -31.100;    0.000;25.51716
 523.86;    7.717;  -29.400;    0.000;37.11741
 524.02;  -45.182;  -55.200;    0.000;10.01767
 524.18;   23.718;  -22.200;    0.000;45.91792
 524.34;   25.318;   29.800;    0.000;-4.48182
 524.50;  -28.882;  -88.800;    0.000;59.91843
 524.66;   41.819;   36.900;    0.000; 4.91868
 524.82;  112.019;   47.700;    0.000;64.31894
 524.98; -127.581; -105.800;    0.000;-21.78081
 525.14;  107.419;   76.300;    0.000;31.11945
 525.29;   24.520;    9.600;    0.000;14.91970
 525.45;   64.020;    8.400;    0.000;55.61995
 525.61;  -88.880; -126.800;    0.000;37.92021
 525.77;   89.320;   45.000;    0.000;44.32047
 525.93;   66.621;   22.800;    0.000;43.82072
 526.09;   61.121;    5.600;    0.000;55.52097
 526.25;   -4.579;  -18.800;    0.000;14.22122
 526.41;   27.621;    3.700;    0.000;23.92148
 526.57;   13.322;  -19.100;    0.000;32.42173
 526.73;  127.622;   67.000;    0.000;60.62199
 526.89;  -85.078; -118.900;    0.000;33.82224
 527.04;    1.522;   -1.700;    0.000; 3.22250
 527.20;   35.123;   -6.800;    0.000;41.92275
 527.36;  126.523;   56.500;    0.000;70.02300
 527.52;  -15.677;  -37.200;    0.000;21.52326
 527.68;  -68.176; -119.100;    0.000;50.92351
 527.84;  -45.876;  -70.000;    0.000;24.12376
 528.00;  -16.976;  -48.400;    0.000;31.42402
 528.16;   99.624;   78.900;    0.000;20.72427
 528.32;  -27.975;  -62.300;    0.000;34.32453
 528.48;  -18.375;  -14.600;    0.000;-3.77522
 528.64;  -28.675;  -98.400;    0.000;69.72504
 528.79;  117.825;   91.100;    0.000;26.72529
 528.95;   40.926;  -14.600;    0.000;55.52555
 529.11;   45.626;   17.500;    0.000;28.12580
 529.27;   -6.274;  -19.000;    0.000;12.72605
 529.43;  132.126;  138.000;    0.000;-5.87369
 529.59;  -82.473; -118.000;    0.000;35.52656
 529.75;  -77.773;  -73.600;    0.000;-4.17319
 529.91; -113.473; -124.700;    0.000;11.22707
 530.07;  -14.073;  -48.100;    0.000;34.02732
 530.22;  -16.672;  -46.200;    0.000;29.52758
 530.38;   11.428;  -26.400;    0.000;37.82783
 530.54;  -16.672;  -76.000;    0.000;59.32809
 530.70;   -8.172;   12.600;    0.000;-20.77166
 530.86; -100.471; -130.600;    0.000;30.12860
 531.02;   -5.271;  -10.300;    0.000; 5.02885
 531.18;   16.029;  -38.900;    0.000;54.92910
 531.34;  175.929;  114.100;    0.000;61.82935
 531.50;   -5.570;  -22.600;    0.000;17.02961
 531.65;  178.330;  168.200;    0.000;10.12987
 531.81;  -68.970; -110.100;    0.000;41.13012
 531.97;  -32.670;  -56.800;    0.000;24.13037
 532.13;  -56.369;  -60.700;    0.000; 4.33063
 532.29;    9.931;  -29.400;    0.000;39.33088
 532.45;  -30.569;  -79.800;    0.000;49.23114
 532.61;  -70.169;  -60.900;    0.000;-9.26861
 532.77;   11.232;   -8.100;    0.000;19.33164
 532.93;   71.732;   48.600;    0.000;23.13190
 533.08; -128.568; -129.500;    0.000; 0.93216
 533.24;    6.232;   23.200;    0.000;-16.96759
 533.40;   73.933;   41.900;    0.000;32.03266
 533.56;  -26.867;  -26.100;    0.000;-0.76709
 533.72;   83.233;   36.800;    0.000;46.43317
 533.88;   85.433;   58.300;    0.000;27.13343
 534.04;  113.734;  104.700;    0.000; 9.03368
 534.20;   74.634;   66.000;    0.000; 8.63393
 534.35;  -75.366;  -61.200;    0.000;-14.16581
 534.51;   64.934;   39.300;    0.000;25.63444
 534.67;   24.135;   -2.300;    0.000;26.43469
 534.83;  181.935;  148.500;    0.000;33.43495
 534.99;   -0.165;  -58.700;    0.000;58.53520
 535.15;   33.635;   35.500;    0.000;-1.86454
 535.31;   74.436;   28.400;    0.000;46.03571
 535.46;  165.236;  159.600;    0.000; 5.63596
 535.62;  -12.164;  -81.500;    0.000;69.33622
 535.78;  -69.764;  -93.900;    0.000;24.13647
 535.94;  -11.363;  -71.200;    0.000;59.83672
 536.10;  -54.863;  -37.600;    0.000;-17.26302
 536.26;  -89.963; -129.300;    0.000;39.33723
 536.42;   10.237;  -24.400;    0.000;34.63749
 536.58;   18.338;  -21.000;    0.000;39.33774
 536.73;   52.538;    8.300;    0.000;44.23800
 536.89;  -29.862;  -58.100;    0.000;28.23825
 537.05;  117.239;   85.800;    0.000;31.43850
 537.21;   20.539;   -2.600;    0.000;23.13876
 537.37;   19.439;   -4.400;    0.000;23.83901
 537.53;   23.539;  -29.000;    0.000;52.53927
 537.69;   51.740;   66.800;    0.000;-15.06048
 537.84;  -48.060;  -75.100;    0.000;27.03978
 538.00;  146.940;  119.600;    0.000;27.34003
 538.16;   87.240;   60.300;    0.000;26.94028
 538.32;   67.041;   66.100;    0.000; 0.94054
 538.48;  -64.159;  -65.000;    0.000; 0.84079
 538.64;   63.841;   31.800;    0.000;32.04105
 538.80;  125.241;   93.500;    0.000;31.74130
 538.95;   87.342;   41.100;    0.000;46.24155
 539.11;  -77.658; -106.800;    0.000;29.14182
 539.27;   -2.658;    4.700;    0.000;-7.35794
 539.43;  133.342;  119.200;    0.000;14.14232
 539.59;  -11.757;  -11.700;    0.000;-0.05743
 539.75;  -77.257; -128.200;    0.000;50.94283
 539.90;   18.543;    6.800;    0.000;11.74308
 540.06;   32.543;  -27.000;    0.000;59.54333
 540.22;  117.444;   95.000;    0.000;22.44359
 540.38;   21.444;    2.100;    0.000;19.34384
 540.54;  -32.156;  -22.000;    0.000;-10.15590
 540.70;   -3.856;  -19.300;    0.000;15.44435
 540.86;  -13.555;  -19.100;    0.000; 5.54460
 541.01;  -80.155; -130.800;    0.000;50.64486
 541.17;   -9.655;  -17.800;    0.000; 8.14511
 541.33;   89.845;   64.300;    0.000;25.54536
 541.49;   31.546;   64.600;    0.000;-33.05438
 541.65;   -2.954;   14.300;    0.000;-17.25413
 541.81;   82.446;   86.800;    0.000;-4.35387
 541.96;   11.046;  -25.200;    0.000;36.24638
 542.12;   -5.853;  -37.700;    0.000;31.84664
 542.28;   12.347;    7.600;    0.000; 4.74689
 542.44;  160.647;  165.900;    0.000;-5.25285
 542.60;    1.247;  -25.600;    0.000;26.84740
 542.76;  -15.752;   13.200;    0.000;-28.95235
 542.91;  -22.852;    7.500;    0.000;-30.35209
 543.07;   89.048;   89.900;    0.000;-0.85184
 543.23;   22.548;   23.900;    0.000;-1.35158
 543.39;  -13.851;   28.800;    0.000;-42.65133
 543.55;   87.849;   86.900;    0.000; 0.94892
 543.71;   74.849;   88.000;    0.000;-13.15082
 543.86;   -7.351;   27.700;    0.000;-35.05057
 544.02;  -86.550;  -23.200;    0.000;-63.35032
 544.18;   65.850;  111.900;    0.000;-46.05006
 544.34;   24.150;   32.800;    0.000;-8.64981
 544.50;   49.550;   34.800;    0.000;14.75045
 544.65;   46.151;   63.500;    0.000;-17.34930
 544.81;   87.151;   96.400;    0.000;-9.24905
 544.97; -115.549; -144.800;    0.000;29.25121
 545.13;  -15.549;    6.300;    0.000;-21.84853
 545.29;  -29.848;  -25.700;    0.000;-4.14828
 545.45;  -32.148;  -52.000;    0.000;19.85197
 545.60;  -20.348;   31.800;    0.000;-52.14777
 545.76;  -52.948;  -54.000;    0.000; 1.05248
 545.92;   19.953;   23.300;    0.000;-3.34726
 546.08;   -8.347;   15.300;    0.000;-23.64701
 546.24;   -5.547;   52.000;    0.000;-57.54676
 546.39;  -27.747;   15.200;    0.000;-42.94650
 546.55;  -45.046;    0.300;    0.000;-45.34625
 546.71; -132.946; -168.700;    0.000;35.75400
 546.87;  -92.046; -104.500;    0.000;12.45426
 547.03;   52.155;   34.000;    0.000;18.15451
 547.19;   63.455;   91.500;    0.000;-28.04523
 547.34;  -69.145;  -92.700;    0.000;23.55502
 547.50;   83.555;   59.500;    0.000;24.05527
 547.66;   21.356;   -6.100;    0.000;27.45553
 547.82;   19.656;   50.100;    0.000;-30.44421
 547.98;  -55.744;  -69.400;    0.000;13.65604
 548.13;   18.456;    5.200;    0.000;13.25629
 548.29;  -35.643;  -53.000;    0.000;17.35655
 548.45;  -58.543;  -34.200;    0.000;-24.34320
 548.61;  -32.943;  -23.000;    0.000;-9.94294
 548.77;  -68.243; -127.500;    0.000;59.25731
 548.92;    0.958;  -11.800;    0.000;12.75756
 549.08;   49.958;   59.300;    0.000;-9.34218
 549.24;  -22.742;  -42.300;    0.000;19.55807
 549.40;  -64.742;  -85.900;    0.000;21.15833
 549.56;   20.759;   33.500;    0.000;-12.74142
 549.71;   84.959;   68.000;    0.000;16.95883
 549.87;   31.059;  -11.100;    0.000;42.15909
 550.03;   61.859;   16.200;    0.000;45.65934
 550.19;   -2.040;  -15.700;    0.000;13.65960
 550.35;  -50.340;  -40.500;    0.000;-9.84015
 550.50;    9.360;   14.700;    0.000;-5.33989
 550.66;   70.960;  102.600;    0.000;-31.63964
 550.82;  -20.539;  -32.800;    0.000;12.26061
 550.98;  -34.439;  -44.300;    0.000; 9.86087
 551.14;  -65.539;  -55.400;    0.000;-10.13888
 551.29;  -65.439;  -62.800;    0.000;-2.63862
 551.45;   57.062;   53.100;    0.000; 3.96163
 551.61;  -30.138;  -19.900;    0.000;-10.23812
 551.77;  124.662;   85.300;    0.000;39.36214
 551.92; -114.438; -146.000;    0.000;31.56239
 552.08;  -43.037;  -86.200;    0.000;43.16264
 552.24;   19.363;   22.500;    0.000;-3.13710
 552.40;  -31.537;  -70.200;    0.000;38.66315
 552.56;  -28.937;  -32.100;    0.000; 3.16341
 552.71;  366.264;  322.200;    0.000;44.06366
 552.87;   86.064;   91.700;    0.000;-5.63608
 553.03;    3.164;   12.000;    0.000;-8.83583
 553.19;   78.464;   69.100;    0.000; 9.36443
 553.35;  -90.835; -115.400;    0.000;24.56468
 553.50;  -21.135;  -18.900;    0.000;-2.23507
 553.66;  -13.635;  -56.700;    0.000;43.06519
 553.82;   88.165;   76.600;    0.000;11.56544
 553.98;  -25.334; -106.900;    0.000;81.56570
 554.13;   25.566;   -3.500;    0.000;29.06595
 554.29;   29.166;   20.900;    0.000; 8.26620
 554.45;   28.766;   28.400;    0.000; 0.36646
 554.61;  -60.333;  -77.800;    0.000;17.46672
 554.77;   38.267;   15.000;    0.000;23.26697
 554.92;  -76.133; -107.400;    0.000;31.26722
 555.08;  122.167;  126.100;    0.000;-3.93253
 555.24;  -37.932;  -56.500;    0.000;18.56773
 555.40;   51.468;   44.300;    0.000; 7.16798
 555.55;   71.468;   24.900;    0.000;46.56824
 555.71;   56.468;   14.600;    0.000;41.86849
 555.87;    8.669;    8.800;    0.000;-0.13125
 556.03;  -55.131;  -61.700;    0.000; 6.56900
 556.18;   23.669;   12.900;    0.000;10.76925
 556.34;  -24.430;  -19.500;    0.000;-4.93049
 556.50;   45.470;    0.100;    0.000;45.36976
 556.66;  105.570;   76.100;    0.000;29.47002
 556.81;  -16.730;  -69.500;    0.000;52.77027
 556.97;  -30.729;  -51.900;    0.000;21.17053
 557.13;  -70.729; -107.000;    0.000;36.27078
 557.29;   24.171;   34.600;    0.000;-10.42896
 557.45;  -39.429;  -81.800;    0.000;42.37129
 557.60;  -46.028;  -68.800;    0.000;22.77155
 557.76;   16.372;  -59.300;    0.000;75.67179
 557.92;   52.872;   54.100;    0.000;-1.22795
 558.08;   -4.728;  -24.700;    0.000;19.97230
 558.23;   -6.327;  -19.500;    0.000;13.17256
 558.39;  -14.527;  -33.600;    0.000;19.07281
 558.55;    1.073;   28.900;    0.000;-27.82693
 558.71;   58.173;   69.700;    0.000;-11.52668
 558.86;  -45.026;  -55.100;    0.000;10.07357
 559.02;   19.074;    0.800;    0.000;18.27383
 559.18;   46.774;   22.500;    0.000;24.27408
 559.34;   -1.426;  -35.700;    0.000;34.27434
 559.49;  -74.225;  -91.600;    0.000;17.37459
 559.65; -118.625; -120.300;    0.000; 1.67485
 559.81;  -30.525;  -66.700;    0.000;36.17510
 559.97;   31.175;   11.600;    0.000;19.57535
 560.12;   49.076;   34.800;    0.000;14.27561
 560.28;   35.876;   -0.600;    0.000;36.47586
 560.44;    9.976;    0.800;    0.000; 9.17612
 560.60;  -41.124;  -71.100;    0.000;29.97637
 560.75;    8.277;  -16.300;    0.000;24.57662
 560.91; -121.323; -141.900;    0.000;20.57687
 561.07;  -42.323;  -25.600;    0.000;-16.72287
 561.23;   84.577;   76.500;    0.000; 8.07738
 561.38;   29.078;   22.900;    0.000; 6.17764
 561.54;   18.878;  -12.500;    0.000;31.37790
 561.70;   67.078;   56.800;    0.000;10.27815
 561.85; -140.022; -143.700;    0.000; 3.67841
 562.01;  -89.621;  -79.600;    0.000;-10.02135
 562.17;  -93.721;  -85.600;    0.000;-8.12109
 562.33;  -40.121;  -52.300;    0.000;12.17916
 562.48;  -87.821;  -69.900;    0.000;-17.92058
 562.64;  -79.420;  -81.200;    0.000; 1.77967
 562.80;   -1.420;  -22.400;    0.000;20.97993
 562.96;   -7.520;  -49.800;    0.000;42.28018
 563.11;  -40.020;  -56.600;    0.000;16.58043
 563.27;   10.681;   24.400;    0.000;-13.71931
 563.43;  -94.819; -121.800;    0.000;26.98095
 563.59;  -75.519;  -83.900;    0.000; 8.38120
 563.74; -128.419; -165.700;    0.000;37.28145
 563.90;  -44.818;  -42.200;    0.000;-2.61829
 564.06; -123.618; -105.500;    0.000;-18.11804
 564.21;   63.582;   45.700;    0.000;17.88221
 564.37;   86.282;   69.100;    0.000;17.18247
 564.53;    4.583;  -33.500;    0.000;38.08272
 564.69;  -80.317; -101.400;    0.000;21.08298
 564.84;  -15.417;  -40.000;    0.000;24.58323
 565.00;  -61.417;  -88.700;    0.000;27.28348
 565.16;  -13.116;   -2.100;    0.000;-11.01626
 565.32;    7.884;    1.600;    0.000; 6.28399
 565.47;   14.884;  -26.300;    0.000;41.18425
 565.63;  122.384;   56.800;    0.000;65.58450
 565.79;  -25.115;  -52.600;    0.000;27.48475
 565.94;   14.985;  -21.100;    0.000;36.08501
 566.10;  -42.115;  -65.000;    0.000;22.88527
 566.26;   -4.314;  -77.900;    0.000;73.58552
 566.42;   -5.114;  -79.100;    0.000;73.98577
 566.57;   59.786;   42.000;    0.000;17.78603
 566.73;   96.486;   79.000;    0.000;17.48628
 566.89;    6.887;  -23.400;    0.000;30.28653
 567.04;  -63.713;  -74.700;    0.000;10.98679
 567.20;   84.087;   28.500;    0.000;55.58704
 567.36;  -13.613;  -69.400;    0.000;55.78730
 567.52;  -60.112;  -69.400;    0.000; 9.28755
 567.67;  -18.812;  -39.600;    0.000;20.78780
 567.83;   78.288;   65.700;    0.000;12.58807
 567.99;  -60.812;  -56.600;    0.000;-4.21169
 568.14;   88.089;   50.100;    0.000;37.98857
 568.30;   29.489;    9.500;    0.000;19.98882
 568.46;   50.789;  -46.600;    0.000;97.38908
 568.61;   62.989;   -8.500;    0.000;71.48933
 568.77;   89.090;   41.800;    0.000;47.28959
 568.93;  109.690;   12.000;    0.000;97.68984
 569.09;   32.690;  -30.900;    0.000;63.59009
 569.24;  101.590;   82.800;    0.000;18.79034
 569.40;  -45.509; -107.400;    0.000;61.89060
 569.56;  165.091;  151.800;    0.000;13.29085
 569.71;   42.591;  -15.900;    0.000;58.49111
 569.87;  125.891;   50.400;    0.000;75.49136
 570.03;   -3.708;  -26.400;    0.000;22.69162
 570.18;   87.592;   46.900;    0.000;40.69187
 570.34;   52.592;  -47.900;    0.000;100.49213
 570.50;   37.492;  -12.500;    0.000;49.99238
 570.66;   99.993;   13.900;    0.000;86.09263
 570.81;  -42.707;  -66.200;    0.000;23.49289
 570.97;   45.993;    1.900;    0.000;44.09314
 571.13;   -1.307;  -19.900;    0.000;18.59340
 571.28;  -14.706;  -37.700;    0.000;22.99365
 571.44;  -26.306;  -46.800;    0.000;20.49390
 571.60;  -25.306;  -44.900;    0.000;19.59416
 571.75;  -62.806; -103.000;    0.000;40.19441
 571.91;  -12.405;  -32.800;    0.000;20.39467
 572.07;  -68.505;  -92.400;    0.000;23.89492
 572.22; -105.805; -108.100;    0.000; 2.29517
 572.38;  -70.105; -106.800;    0.000;36.69543
 572.54;   49.896;    4.800;    0.000;45.09568
 572.70;   40.496;  -18.000;    0.000;58.49594
 572.85;   -0.204;  -98.000;    0.000;97.79619
 573.01;   56.196;  -53.300;    0.000;109.49644
 573.17;  156.397;   52.500;    0.000;103.89670
 573.32;   85.997;    6.400;    0.000;79.59696
 573.48;   23.397;  -62.000;    0.000;85.39721
 573.64;  138.797;   25.800;    0.000;112.99746
 573.79;   71.898;  -44.100;    0.000;115.99771
 573.95;   41.998;  -57.700;    0.000;99.69797
 574.11;   20.598;  -55.200;    0.000;75.79823
 574.26;   76.898;   -3.700;    0.000;80.59848
 574.42;  -35.301;  -94.800;    0.000;59.49874
 574.58;  106.699;   83.000;    0.000;23.69899
 574.73;   38.199;   -0.700;    0.000;38.89924
 574.89;  -20.101;  -41.300;    0.000;21.19950
 575.05; -116.200; -145.400;    0.000;29.19975
 575.20;   55.900;   30.500;    0.000;25.40000
 575.36;   37.300;   -4.600;    0.000;41.90026
 575.52;  -48.399;  -61.700;    0.000;13.30051
 575.67;  -37.599; -103.300;    0.000;65.70077
 575.83;  110.701;   -7.200;    0.000;117.90102
 575.99;  176.801;   28.600;    0.000;148.20127
 576.14;  120.302;   10.700;    0.000;109.60153
 576.30;  179.302;   80.800;    0.000;98.50179
 576.46;  -13.698;  -64.900;    0.000;51.20204
 576.61;  -22.498;  -91.300;    0.000;68.80229
 576.77;  120.403;   12.400;    0.000;108.00254
 576.93;    5.603;  -79.900;    0.000;85.50280
 577.08;  -51.197;  -42.700;    0.000;-8.49694
 577.24; -108.697; -126.100;    0.000;17.40331
 577.40;  -35.996;  -85.900;    0.000;49.90356
 577.55;  210.804;  116.200;    0.000;94.60382
 577.71;   29.404;   -2.800;    0.000;32.20407
 577.87;  -46.496; -113.300;    0.000;66.80433
 578.02;  167.505;   96.400;    0.000;71.10458
 578.18;  189.505;   99.000;    0.000;90.50484
 578.34;  -15.995;  -56.100;    0.000;40.10508
 578.49;   20.105;  -64.200;    0.000;84.30534
 578.65;  101.306;  -25.600;    0.000;126.90560
 578.81;  112.006;    5.700;    0.000;106.30585
 578.96;  107.606;   45.700;    0.000;61.90610
 579.12;   36.906;  -45.600;    0.000;82.50636
 579.28;   89.607;   31.000;    0.000;58.60661
 579.43;  112.807;   33.500;    0.000;79.30686
 579.59;  134.307;   15.800;    0.000;118.50711
 579.74;  236.407;  160.600;    0.000;75.80737
 579.90;   99.708;   43.500;    0.000;56.20763
 580.06;   -3.592;  -53.600;    0.000;50.00788
 580.21;   99.108;   50.200;    0.000;48.90814
 580.37;   11.508;  -30.200;    0.000;41.70839
 580.53;   79.109;    2.600;    0.000;76.50864
 580.68;  169.509;   19.700;    0.000;149.80890
 580.84;  -18.591; -109.400;    0.000;90.80915
 581.00;   25.009;  -44.300;    0.000;69.30940
 581.15;   62.910;  -46.300;    0.000;109.20966
 581.31;  197.110;  -88.600;    0.000;285.70991
 581.47;  240.710;  -66.000;    0.000;306.71017
 581.62;  211.310;  -13.200;    0.000;224.51042
 581.78;   56.911;  -99.800;    0.000;156.71068
 581.93;  238.411;   92.400;    0.000;146.01093
 582.09;  282.011;  168.400;    0.000;113.61121
 582.25;   83.011;  -28.600;    0.000;111.61144
 582.40;   21.912;  -69.900;    0.000;91.81170
 582.56;    5.812;  -82.800;    0.000;88.61195
 582.72;   79.012;    7.300;    0.000;71.71220
 582.87;   22.812;    1.600;    0.000;21.21246
 583.03;  -64.787;  -70.600;    0.000; 5.81271
 583.19;   -9.787;  -89.000;    0.000;79.21296
 583.34;   76.913;  -17.600;    0.000;94.51322
 583.50;   23.313;  -74.800;    0.000;98.11348
 583.65;   71.514;  -65.800;    0.000;137.31373
 583.81;  123.814;  -61.500;    0.000;185.31398
 583.97;    2.914; -105.200;    0.000;108.11423
 584.12;   63.814;   10.300;    0.000;53.51449
 584.28;  184.715;  128.000;    0.000;56.71474
 584.44;   44.715;   -1.900;    0.000;46.61500
 584.59;  -21.185;  -64.600;    0.000;43.41525
 584.75;   35.716;   -7.400;    0.000;43.11550
 584.90;   82.116;   20.700;    0.000;61.41576
 585.06;   45.616;  -47.500;    0.000;93.11601
 585.22;   80.016;   14.200;    0.000;65.81627
 585.37; -110.883; -155.400;    0.000;44.51652
 585.53;  100.317;  110.800;    0.000;-10.48323
 585.68;   13.117;  -48.400;    0.000;61.51703
 585.84;   95.717;   51.100;    0.000;44.61729
 586.00;  -26.982;  -49.000;    0.000;22.01754
 586.15;  157.618;   95.300;    0.000;62.31779
 586.31;   57.918;   15.100;    0.000;42.81804
 586.47;  -26.782;  -60.600;    0.000;33.81830
 586.62;  -78.981; -141.700;    0.000;62.71855
 586.78;   48.119;  -20.000;    0.000;68.11881
 586.93;  -36.681;  -90.200;    0.000;53.51906
 587.09;   69.719;  -33.000;    0.000;102.71931
 587.25;   82.120;  -19.900;    0.000;102.01957
 587.40;    8.020;  -52.600;    0.000;60.61982
 587.56;   31.720;   12.300;    0.000;19.42008
 587.71;   43.720;   15.900;    0.000;27.82033
 587.87;   24.221;  -46.900;    0.000;71.12059
 588.03;    6.021;  -19.700;    0.000;25.72084
 588.18;   -1.379;  -45.600;    0.000;44.22109
 588.34;    8.621;   -2.800;    0.000;11.42135
 588.49;  112.222;  -34.100;    0.000;146.32160
 588.65;  211.322;   76.200;    0.000;135.12186
 588.81;   67.422;  -56.500;    0.000;123.92211
 588.96;  200.322;  -36.100;    0.000;236.42237
 589.12;  161.723;  -32.000;    0.000;193.72263
 589.27;   91.023;    5.300;    0.000;85.72287
 589.43;   37.323;  -28.600;    0.000;65.92313
 589.59;   27.523;  -43.100;    0.000;70.62338
 589.74;  109.224;   51.000;    0.000;58.22364
 589.90;  -35.576;  -48.800;    0.000;13.22389
 590.05;  -37.376;  -58.200;    0.000;20.82415
 590.21;   68.224;   28.700;    0.000;39.52439
 590.37;   10.925;  -25.800;    0.000;36.72465
 590.52;  -39.275;  -72.700;    0.000;33.42490
 590.68;   -5.575;  -18.500;    0.000;12.92516
 590.83;   86.725;   47.400;    0.000;39.32542
 590.99;  -72.974;  -96.300;    0.000;23.32568
 591.15;   17.426;  -22.200;    0.000;39.62593
 591.30;    0.826;  -64.500;    0.000;65.32618
 591.46;   98.726;   63.000;    0.000;35.72643
 591.61;  117.127;   14.500;    0.000;102.62669
 591.77;  106.427;  -18.900;    0.000;125.32694
 591.93;   63.627;  -46.800;    0.000;110.42719
 592.08;  133.727;   53.000;    0.000;80.72745
 592.24;  135.628;   47.300;    0.000;88.32770
 592.39;   56.328;   -5.400;    0.000;61.72796
 592.55;  117.228;   67.200;    0.000;50.02821
 592.70;   60.428;    4.200;    0.000;56.22847
 592.86;  -11.371;  -78.500;    0.000;67.12872
 593.02;   86.429;   54.300;    0.000;32.12897
 593.17;  117.629;  -24.300;    0.000;141.92923
 593.33;  131.729;  -18.600;    0.000;150.32948
 593.48;   73.130;  -35.300;    0.000;108.42974
 593.64;  -32.370;  -75.300;    0.000;42.92999
 593.79;   94.330;    5.200;    0.000;89.13025
 593.95;   60.530; -113.300;    0.000;173.83050
 594.11;   71.031;  -88.400;    0.000;159.43076
 594.26;   84.031;   -9.400;    0.000;93.43101
 594.42;  -31.669; -117.600;    0.000;85.93126
 594.57;  -55.368;  -45.900;    0.000;-9.46848
 594.73;  -56.868; -113.700;    0.000;56.83176
 594.88;    2.532;  -67.700;    0.000;70.23202
 595.04;   93.132;  -27.300;    0.000;120.43228
 595.20;   41.833;  -52.800;    0.000;94.63253
 595.35;  161.333;  115.600;    0.000;45.73278
 595.51;  -85.367;  -90.900;    0.000; 5.53304
 595.66;  -11.567;  -30.800;    0.000;19.23329
 595.82;   87.734;   76.200;    0.000;11.53355
 595.97;  -10.266;  -92.200;    0.000;81.93380
 596.13;  156.834;   77.500;    0.000;79.33406
 596.29;  -38.266; -116.100;    0.000;77.83431
 596.44;  -83.765; -117.900;    0.000;34.13457
 596.60;  104.835;   58.700;    0.000;46.13482
 596.75;    7.135;  -68.300;    0.000;75.43508
 596.91;   34.335;  -85.200;    0.000;119.53532
 597.06;  -25.164; -124.400;    0.000;99.23558
 597.22;  -14.564; -129.600;    0.000;115.03584
 597.37;  -73.564; -121.400;    0.000;47.83609
 597.53;   68.436;  -46.100;    0.000;114.53634
 597.69;  122.537;  -35.000;    0.000;157.53660
 597.84;   70.037;  -12.900;    0.000;82.93685
 598.00;   66.837;   35.500;    0.000;31.33710
 598.15;   -1.663;  -50.500;    0.000;48.83736
 598.31;  154.238;   44.100;    0.000;110.13761
 598.46;  143.538;   31.800;    0.000;111.73787
 598.62;  -51.262;  -76.100;    0.000;24.83812
 598.77;   31.238;   10.500;    0.000;20.73838
 598.93;   41.539;  -13.000;    0.000;54.53863
 599.09;   95.439;   29.600;    0.000;65.83888
 599.24;  134.839;   68.800;    0.000;66.03914
 599.40;   37.539;    0.100;    0.000;37.43939
 599.55;   71.840;   15.900;    0.000;55.93965
 599.71;    1.840;  -52.500;    0.000;54.33990
 599.86;    8.140;    4.500;    0.000; 3.64015
 600.02;  -49.360;  -51.600;    0.000; 2.24041
 600.17;   66.841;   68.200;    0.000;-1.35934
 600.33;  160.741;   87.500;    0.000;73.24092
 600.48;   52.241;   12.500;    0.000;39.74117
 600.64;  -26.459;  -90.700;    0.000;64.24142
 600.79;   98.742;   94.200;    0.000; 4.54168
 600.95;   58.242;   29.100;    0.000;29.14194
 601.11;   72.742;   17.200;    0.000;55.54219
 601.26; -130.558; -159.900;    0.000;29.34244
 601.42;  143.843;  118.400;    0.000;25.44270
 601.57;  105.043;   92.500;    0.000;12.54295
 601.73;   38.643;    6.000;    0.000;32.64320
 601.88;  183.343;   40.500;    0.000;142.84346
 602.04;  152.844;  -16.200;    0.000;169.04372
 602.19;  192.044;   72.400;    0.000;119.64396
 602.35;   58.444;  -75.800;    0.000;134.24422
 602.50;   -2.456; -120.900;    0.000;118.44448
 602.66;  113.645;   87.300;    0.000;26.34473
 602.81;   88.245;  -31.100;    0.000;119.34498
 602.97;  204.245;   99.700;    0.000;104.54524
 603.12;  177.045;   31.500;    0.000;145.54549
 603.28;  157.446;  -95.800;    0.000;253.24574
 603.44;  129.846;  -67.500;    0.000;197.34599
 603.59;  -17.554; -100.500;    0.000;82.94625
 603.75;  -55.753;  -90.200;    0.000;34.44651
 603.90;  -14.553;  -30.100;    0.000;15.54676
 604.06;    8.747;  -10.300;    0.000;19.04702
 604.21;  -10.153;  -34.300;    0.000;24.14727
 604.37;   68.248;   40.600;    0.000;27.64753
 604.52;   23.048;  -19.500;    0.000;42.54778
 604.68;    5.748;  -35.100;    0.000;40.84803
 604.83;  -35.352;  -90.900;    0.000;55.54829
 604.99;   17.149;  -55.100;    0.000;72.24854
 605.14;  101.249;   58.300;    0.000;42.94880
 605.30;   37.549;  -44.900;    0.000;82.44905
 605.45;   47.649;  -23.500;    0.000;71.14930
 605.61;   62.250;  -10.000;    0.000;72.24956
 605.76;   88.750;   15.500;    0.000;73.24981
 605.92;   16.150;  -30.500;    0.000;46.65007
 606.07;   -1.550;  -20.500;    0.000;18.95032
 606.23;  -13.549;  -57.500;    0.000;43.95057
 606.38;   79.551;   84.400;    0.000;-4.84917
 606.54;   33.451;  -41.800;    0.000;75.25108
 606.69;  147.251;   84.300;    0.000;62.95134
 606.85;  -53.748; -118.800;    0.000;65.05159
 607.00;   62.052;  -51.000;    0.000;113.05185
 607.16;  111.452;  -45.400;    0.000;156.85210
 607.31;  204.052;  102.200;    0.000;101.85236
 607.47;  -68.247; -162.400;    0.000;94.15260
 607.62;   66.653;   54.500;    0.000;12.15286
 607.78;   78.053;   13.100;    0.000;64.95312
 607.93;   14.953;  -35.800;    0.000;50.75337
 608.09;   99.554;    2.600;    0.000;96.95363
 608.24;  138.454;   29.300;    0.000;109.15387
 608.40;  -80.246; -131.600;    0.000;51.35414
 608.55;  -74.446;  -82.000;    0.000; 7.55439
 608.71;  -20.845; -112.800;    0.000;91.95464
 608.86;   63.155;   22.600;    0.000;40.55490
 609.02;   56.855;   -9.700;    0.000;66.55515
 609.17;  -41.545; -126.200;    0.000;84.65540
 609.33;   47.156;  -69.200;    0.000;116.35566
 609.48;  -33.544;  -95.500;    0.000;61.95591
 609.64;   52.156;    5.000;    0.000;47.15617
 609.79;   76.656;   -8.700;    0.000;85.35642
 609.95;   42.457;   18.300;    0.000;24.15667
 610.10;  -17.343;  -31.600;    0.000;14.25693
 610.26;   63.957;   43.400;    0.000;20.55718
 610.41;  -27.543;  -18.600;    0.000;-8.94256
 610.57;   10.258;   18.100;    0.000;-7.84231
 610.72;   11.858;   52.200;    0.000;-40.34206
 610.88;   -2.042;    0.200;    0.000;-2.24180
 611.03;  -21.542;   41.900;    0.000;-63.44155
 611.19;   -9.541;   93.700;    0.000;-103.24129
 611.34;   34.059;  137.000;    0.000;-102.94104
 611.50;   -4.641;  102.100;    0.000;-106.74078
 611.65;  -48.941;   43.400;    0.000;-92.34053
 611.81;  -28.740;   21.000;    0.000;-49.74028
 611.96;   57.260;   56.800;    0.000; 0.45998
 612.12;   89.160;   85.300;    0.000; 3.86023
 612.27;  119.860;   39.600;    0.000;80.26049
 612.43;   32.961;  -17.500;    0.000;50.46074
 612.58;   57.761;   49.000;    0.000; 8.76099
 612.73;  -15.939;  -40.200;    0.000;24.26125
 612.89;  110.862;   78.600;    0.000;32.26151
 613.04;   76.162;   48.800;    0.000;27.36176
 613.20;  -54.438;  -38.700;    0.000;-15.73799
 613.35;   43.462;   35.000;    0.000; 8.46227
 613.51;   42.763;  -14.800;    0.000;57.56252
 613.66;  145.563;  -14.700;    0.000;160.26277
 613.82;  236.463;  158.500;    0.000;77.96303
 613.97;  -16.137;  -83.300;    0.000;67.16328
 614.13;  135.164;  111.800;    0.000;23.36353
 614.28;   36.564;   15.600;    0.000;20.96379
 614.44;  -59.336;  -52.600;    0.000;-6.73596
 614.59;   20.864;    3.700;    0.000;17.16430
 614.75;  -57.435;  -23.800;    0.000;-33.63545
 614.90;   15.165;   24.800;    0.000;-9.63519
 615.05;  -34.935;  -45.700;    0.000;10.76506
 615.21;  -44.135;  -64.800;    0.000;20.66532
 615.36;  -35.634;  -74.500;    0.000;38.86557
 615.52;  -53.434;  -96.300;    0.000;42.86583
 615.67;   33.066;   23.600;    0.000; 9.46607
 615.83;  -48.634;  -98.500;    0.000;49.86633
 615.98;   17.467;    2.500;    0.000;14.96659
 616.14;   94.467;   38.400;    0.000;56.06683
 616.29;   -8.633;  -83.300;    0.000;74.66710
 616.45;  275.067;  190.400;    0.000;84.66736
 616.60;    3.968;  -45.300;    0.000;49.26760
 616.76;   23.468;  -25.600;    0.000;49.06786
 616.91;  -37.132;  -23.400;    0.000;-13.73189
 617.06;   13.668;  -22.600;    0.000;36.26836
 617.22;  -93.931; -126.100;    0.000;32.16862
 617.37;   60.369;   13.900;    0.000;46.46887
 617.53;   89.869;   52.900;    0.000;36.96912
 617.68;   89.969;  -13.900;    0.000;103.86938
 617.84;   86.070;   62.900;    0.000;23.16963
 617.99;  -45.030;  -28.900;    0.000;-16.13011
 618.15;   20.070;   14.600;    0.000; 5.47014
 618.30;   22.370;  -10.800;    0.000;33.17040
 618.45;  -59.329;  -87.000;    0.000;27.67065
 618.61;   54.771;   29.600;    0.000;25.17090
 618.76;   60.271;   45.300;    0.000;14.97116
 618.92;  -78.629;  -67.800;    0.000;-10.82858
 619.07;  387.872;  399.000;    0.000;-11.12833
 619.23; -114.128;  -70.200;    0.000;-43.92809
 619.38; -111.828; -112.200;    0.000; 0.37217
 619.54;  -17.528;  -17.800;    0.000; 0.27243
 619.69;  -98.327; -107.000;    0.000; 8.67268
 619.84;  123.873;   57.100;    0.000;66.77294
 620.00;  118.173;   58.700;    0.000;59.47319
 620.15;  -47.027; -131.700;    0.000;84.67344
 620.31;  136.074;  108.400;    0.000;27.67370
 620.46;  -31.026;  -55.300;    0.000;24.27395
 620.62;   18.274;   -6.300;    0.000;24.57421
 620.77;  -28.026;  -63.300;    0.000;35.27446
 620.92;  -85.525;  -50.500;    0.000;-35.02528
 621.08;  -42.025;  -37.200;    0.000;-4.82503
 621.23;  -18.025;  -20.200;    0.000; 2.17523
 621.39;    8.975;   11.200;    0.000;-2.22452
 621.54;  -25.424;  -28.900;    0.000; 3.47573
 621.70; -137.424; -135.900;    0.000;-1.52402
 621.85;    0.376;   16.500;    0.000;-16.12376
 622.00;  -60.024;  -39.400;    0.000;-20.62350
 622.16;   62.977;   47.700;    0.000;15.27675
 622.31;   47.777;   12.000;    0.000;35.77700
 622.47;  106.377;   74.000;    0.000;32.37726
 622.62;    8.678;  -65.700;    0.000;74.37751
 622.78;  163.678;  122.000;    0.000;41.67776
 622.93;  -45.322;  -66.600;    0.000;21.27802
 623.08;  181.678;  132.000;    0.000;49.67827
 623.24;   32.779;   11.300;    0.000;21.47853
 623.39;   81.179;   56.500;    0.000;24.67878
 623.55;  -41.421;  -65.900;    0.000;24.47904
 623.70;   38.879;  -37.100;    0.000;75.97929
 623.85;  -61.320; -123.200;    0.000;61.87954
 624.01;  182.580;  102.800;    0.000;79.77980
 624.16;  -50.420;  -82.300;    0.000;31.88005
 624.32;  -43.820;  -59.000;    0.000;15.18031
 624.47;  -61.619;  -48.100;    0.000;-13.51944
 624.63;   35.881;   24.100;    0.000;11.78081
 624.78;   -4.619;  -39.700;    0.000;35.08107
 624.93;  -35.119;   -4.900;    0.000;-30.21868
 625.09;  -22.318;  -33.900;    0.000;11.58158
 625.24;  -79.718;  -60.900;    0.000;-18.81817
 625.40; -126.318; -139.500;    0.000;13.18208
 625.55;  -24.918;   11.600;    0.000;-36.51766
 625.70;   58.083;   62.100;    0.000;-4.01740
 625.86;  -50.317;  -38.800;    0.000;-11.51715
 626.01;  -80.817;  -81.800;    0.000; 0.98311
 626.17;   17.983;   24.800;    0.000;-6.81664
 626.32;  -14.416;  -18.600;    0.000; 4.18361
 626.47;   99.884;  103.900;    0.000;-4.01614
 626.63;   68.184;   11.700;    0.000;56.48412
 626.78;   -7.816;   39.500;    0.000;-47.31563
 626.94;   25.585;   23.700;    0.000; 1.88463
 627.09;   -7.815;    2.600;    0.000;-10.41512
 627.24;    0.585;  -33.500;    0.000;34.08514
 627.40;   11.085;    5.700;    0.000; 5.38539
 627.55;  113.386;   49.200;    0.000;64.18564
 627.71;    6.786;  -30.200;    0.000;36.98590
 627.86;  -46.514;  -91.300;    0.000;44.78616
 628.01;   -3.814;    5.000;    0.000;-8.81359
 628.17;  123.287;  108.500;    0.000;14.78666
 628.32;   69.987;  121.200;    0.000;-51.21308
 628.47;  -32.713;  -30.200;    0.000;-2.51283
 628.63;  -64.613;  -55.000;    0.000;-9.61258
 628.78;  112.288;   83.600;    0.000;28.68768
 628.94;  -13.112;   -8.100;    0.000;-5.01207
 629.09;    0.488;  -15.000;    0.000;15.48818
 629.24;  -21.112;  -74.500;    0.000;53.38844
 629.40;  -28.811;  -41.800;    0.000;12.98869
 629.55;   23.589;   -3.700;    0.000;27.28895
 629.71; -123.811; -138.600;    0.000;14.78921
 629.86;  107.989;   58.500;    0.000;49.48946
 630.01;  -61.110;  -75.500;    0.000;14.38971
 630.17;   13.690;  -20.300;    0.000;33.98996
 630.32;   53.190;   19.600;    0.000;33.59022
 630.47;    1.890;   -1.100;    0.000; 2.99047
 630.63;   18.091;   16.600;    0.000; 1.49073
 630.78;   31.391;   46.800;    0.000;-15.40902
 630.94;  -46.309;  -47.600;    0.000; 1.29123
 631.09;  -97.509;  -53.500;    0.000;-44.00851
 631.24; -120.708;  -92.600;    0.000;-28.10826
 631.40;  -59.308;  -37.000;    0.000;-22.30800
 631.55;  -61.408;  -41.100;    0.000;-20.30775
 631.70;    4.393;   43.700;    0.000;-39.30750
 631.86;   16.793;   -3.600;    0.000;20.39276
 632.01;   54.593;   64.900;    0.000;-10.30699
 632.17;  -39.207;  -52.800;    0.000;13.59327
 632.32;  -61.706;  -32.500;    0.000;-29.20648
 632.47;   79.594;   64.200;    0.000;15.39378
 632.63; -120.706; -122.100;    0.000; 1.39403
 632.78;  -16.006;  -55.300;    0.000;39.29428
 632.93;  -41.405;  -78.100;    0.000;36.69454
 633.09;   -6.205;  -51.700;    0.000;45.49479
 633.24;  -41.705;  -94.300;    0.000;52.59505
 633.39;  -48.405;  -83.400;    0.000;34.99530
 633.55;  -62.604;  -60.300;    0.000;-2.30445
 633.70;   16.896;  -26.300;    0.000;43.19581
 633.86;   10.296;    3.600;    0.000; 6.69606
 634.01;   87.096;   62.700;    0.000;24.39631
 634.16;    1.897;  -11.600;    0.000;13.49657
 634.32; -106.503; -124.500;    0.000;17.99683
 634.47;  -26.703;  -20.900;    0.000;-5.80292
 634.62;  -39.603;  -10.000;    0.000;-29.60266
 634.78;  106.898;  103.000;    0.000; 3.89759
 634.93;   -8.602;  -11.800;    0.000; 3.19784
 635.08;   36.198;   25.700;    0.000;10.49810
 635.24;   22.198;   31.800;    0.000;-9.60165
 635.39;    0.499;   -0.800;    0.000; 1.29860
 635.54;    1.499;  -10.900;    0.000;12.39886
 635.70;  -17.801;   -8.100;    0.000;-9.70089
 635.85;  -98.501; -104.500;    0.000; 5.99937
 636.01;   39.000;   63.300;    0.000;-24.30038
 636.16;  -50.800;  -91.600;    0.000;40.79987
 636.31;   23.900;   13.900;    0.000;10.00013
 636.47;   53.200;  -11.800;    0.000;65.00038
 636.62;  125.601;   99.200;    0.000;26.40064
 636.77;  -63.099;  -86.300;    0.000;23.20089
 636.93;  -73.499;  -41.800;    0.000;-31.69886
 637.08;  -49.299;  -48.000;    0.000;-1.29860
 637.23;  102.202;  119.800;    0.000;-17.59835
 637.39;  -41.198;  -17.600;    0.000;-23.59809
 637.54;  -53.498;  -62.300;    0.000; 8.80216
 637.69;    1.502;   -8.100;    0.000; 9.60242
 637.85;   16.303;   -4.000;    0.000;20.30267
 638.00;   99.203;   71.400;    0.000;27.80293
 638.15;  -61.897;  -48.100;    0.000;-13.79682
 638.31;  -25.797;  -76.500;    0.000;50.70343
 638.46;    2.704;   62.300;    0.000;-59.59631
 638.61; -124.996; -120.200;    0.000;-4.79606
 638.77; -111.396; -111.600;    0.000; 0.20419
 638.92;  -38.396;  -68.800;    0.000;30.40445
 639.07;  141.905;  192.900;    0.000;-50.99529
 639.23;  -60.095;  -35.500;    0.000;-24.59504
 639.38;   42.605;   27.600;    0.000;15.00521
 639.53;   43.105;   48.900;    0.000;-5.79454
 639.69;   62.106;  101.800;    0.000;-39.69428
 639.84;  -68.094;  -67.700;    0.000;-0.39403
 639.99;   56.906;   60.800;    0.000;-3.89377
 640.15; -131.094; -138.000;    0.000; 6.90648
 640.30;   -1.993;    9.200;    0.000;-11.19326
 640.45;    6.207;    8.400;    0.000;-2.19301
 640.61;   -3.993;   10.300;    0.000;-14.29276
 640.76;  -45.793;  -38.600;    0.000;-7.19250
 640.91;  -73.692;  -71.700;    0.000;-1.99225
 641.07;    5.408;   13.300;    0.000;-7.89199
 641.22;  -55.592;  -58.400;    0.000; 2.80826
 641.37;   62.809;   32.500;    0.000;30.30851
 641.52;    4.309;   -5.600;    0.000; 9.90877
 641.68;  -45.991;  -27.100;    0.000;-18.89098
 641.83;  -14.391;  -11.100;    0.000;-3.29072
 641.98; -106.790;  -95.900;    0.000;-10.89046
 642.14;  -53.290;  -29.500;    0.000;-23.79021
 642.29;  -11.190;   -5.100;    0.000;-6.08996
 642.44;   -4.190;  -12.700;    0.000; 8.51029
 642.60;    1.011;  -11.300;    0.000;12.31055
 642.75;  -70.289;  -72.000;    0.000; 1.71080
 642.90;  -49.689;  -81.000;    0.000;31.31106
 643.06; -133.489; -126.500;    0.000;-6.98869
 643.21;  -46.788;  -28.300;    0.000;-18.48844
 643.36;   54.912;   37.700;    0.000;17.21182
 643.51;   48.112;    5.400;    0.000;42.71207
 643.67;  -29.188;  -19.500;    0.000;-9.68767
 643.82;  -20.187;  -26.200;    0.000; 6.01258
 643.97;  -55.987;  -58.100;    0.000; 2.11283
 644.13;  -14.687;  -26.600;    0.000;11.91309
 644.28;   26.613;   43.300;    0.000;-16.68666
 644.43;    4.714;   33.200;    0.000;-28.48640
 644.59;  208.314;  176.800;    0.000;31.51385
 644.74; -119.986; -114.200;    0.000;-5.78590
 644.89;   75.014;   84.900;    0.000;-9.88564
 645.04;  107.115;  103.300;    0.000; 3.81461
 645.20;  -30.285;  -17.000;    0.000;-13.28513
 645.35;  -43.185;  -63.700;    0.000;20.51512
 645.50;  -14.385;  -19.200;    0.000; 4.81538
 645.66;  -80.084; -121.400;    0.000;41.31564
 645.81;   29.716;   35.400;    0.000;-5.68412
 645.96;   37.616;   44.000;    0.000;-6.38386
 646.12;  -75.384;  -93.700;    0.000;18.31639
 646.27;  -70.583;  -84.100;    0.000;13.51665
 646.42;   26.017;    5.400;    0.000;20.61690
 646.57;  -52.983;  -69.300;    0.000;16.31716
 646.73;   69.117;  104.100;    0.000;-34.98259
 646.88; -115.682; -138.300;    0.000;22.61767
 647.03;   42.718;   43.200;    0.000;-0.48208
 647.19;  -26.982;  -17.700;    0.000;-9.28183
 647.34;   83.218;   91.100;    0.000;-7.88157
 647.49;   -1.981;    6.100;    0.000;-8.08132
 647.64;   28.119;    2.300;    0.000;25.81893
 647.80;  -55.781;  -84.100;    0.000;28.31919
 647.95;   -7.481;    5.200;    0.000;-12.68056
 648.10; -103.880; -132.700;    0.000;28.81969
 648.26;  -47.980;  -13.300;    0.000;-34.68005
 648.41;   12.920;  -35.300;    0.000;48.22020
 648.56;  -32.780;  -24.200;    0.000;-8.57954
 648.71;  -58.879;  -51.600;    0.000;-7.27929
 648.87;   65.821;   32.900;    0.000;32.92097
 649.02;  -18.079;  -36.200;    0.000;18.12122
 649.17; -108.179;  -83.500;    0.000;-24.67853
 649.32;  -46.878;  -63.200;    0.000;16.32173
 649.48;   36.822;   26.900;    0.000; 9.92198
 649.63;   31.422;   17.300;    0.000;14.12224
 649.78;    3.522;    3.200;    0.000; 0.32249
 649.94;  -18.277;  -34.400;    0.000;16.12275
 650.09;  -57.577;  -41.400;    0.000;-16.17700
 650.24;  -55.177;  -70.700;    0.000;15.52325
 650.39;  -53.376;  -28.100;    0.000;-25.27649
 650.55;   36.824;   45.600;    0.000;-8.77624
 650.70;   90.624;   71.000;    0.000;19.62402
 650.85;  -64.376;  -65.300;    0.000; 0.92427
 651.00;  -16.375;   -2.400;    0.000;-13.97547
 651.16;   26.325;   37.200;    0.000;-10.87522
 651.31;  -73.775;  -81.700;    0.000; 7.92503
 651.46;   -7.475;  -40.800;    0.000;33.32529
 651.61;  -56.274;  -52.600;    0.000;-3.67446
 651.77;   69.726;   61.100;    0.000; 8.62579
 651.92;  -52.174;  -68.100;    0.000;15.92605
 652.07;    7.226;  -22.300;    0.000;29.52630
 652.22;   96.827;   76.400;    0.000;20.42656
 652.38;   73.627;   46.800;    0.000;26.82681
 652.53;    4.027;   -9.700;    0.000;13.72707
 652.68; -106.973;  -95.500;    0.000;-11.47268
 652.83;  -47.772;  -33.100;    0.000;-14.67243
 652.99;  -64.472;  -99.200;    0.000;34.72783
 653.14;  -26.872;  -15.400;    0.000;-11.47192
 653.29;   59.428;   31.300;    0.000;28.12834
 653.44;  -26.471;  -36.100;    0.000; 9.62859
 653.60;   37.829;   26.300;    0.000;11.52885
 653.75;   14.829;   20.700;    0.000;-5.87090
 653.90;   -9.871;  -46.800;    0.000;36.92935
 654.05;   32.530;   16.900;    0.000;15.62961
 654.21;  -13.870;  -93.200;    0.000;79.32986
 654.36;  151.530;   81.800;    0.000;69.73012
 654.51;   79.430;  -45.200;    0.000;124.63037
 654.66;  145.131;   59.000;    0.000;86.13063
 654.82;  139.631;    8.000;    0.000;131.63087
 654.97;  418.731;  229.200;    0.000;189.53114
 655.12;  210.031;  -33.800;    0.000;243.83139
 655.27;  274.632;    0.700;    0.000;273.93165
 655.43;  421.232;  -27.100;    0.000;448.33190
 655.58;  635.432;   -3.900;    0.000;639.33213
 655.73;  904.932;  -79.900;    0.000;984.83237
 655.88; 1682.133;   67.800;    0.000;1614.33269
 656.04; 3622.133; -115.700;    0.000;3737.83281
 656.19;21542.334;   52.300;    0.000;21490.03399
 656.34;63302.035;  -96.100;    0.000;63398.13515
 656.49;62813.234;    3.100;    0.000;62810.13438
 656.65;30981.334; -111.400;    0.000;31092.73399
 656.80;10963.935;  -38.500;    0.000;11002.43457
 656.95; 4126.634;   21.300;    0.000;4105.33428
 657.10; 1887.135;   25.200;    0.000;1861.93464
 657.25; 1152.535;  -38.900;    0.000;1191.43491
 657.41;  723.235;  -57.200;    0.000;780.43517
 657.56;  595.635;  -50.700;    0.000;646.33544
 657.71;  504.536;   31.600;    0.000;472.93571
 657.86;  379.236;  -74.500;    0.000;453.73596
 658.02;  341.136;    9.600;    0.000;331.53620
 658.17;  358.036;  -15.600;    0.000;373.63647
 658.32;  214.637;  -40.600;    0.000;255.23672
 658.47;  298.037;    4.000;    0.000;294.03699
 658.62;  220.537;  -31.100;    0.000;251.63723
 658.78;  227.637;  -21.300;    0.000;248.93748
 658.93;  154.138;   -9.500;    0.000;163.63774
 659.08;  196.438;  -15.000;    0.000;211.43799
 659.23;  250.438;   77.100;    0.000;173.33825
 659.39;  118.438;  -90.200;    0.000;208.63850
 659.54;   63.339;  -81.800;    0.000;145.13876
 659.69;   61.239; -135.900;    0.000;197.13900
 659.84;   59.239;  -59.600;    0.000;118.83926
 659.99;  161.340;  -23.900;    0.000;185.23952
 660.15;   91.640;   30.400;    0.000;61.23977
 660.30;   26.340; -125.400;    0.000;151.74003
 660.45;  142.740;   39.600;    0.000;103.14028
 660.60;  151.941;    7.000;    0.000;144.94054
 660.75;  191.541;   85.300;    0.000;106.24078
 660.91;  105.241;   -6.500;    0.000;111.74104
 661.06;  119.341;  -14.300;    0.000;133.64129
 661.21;   50.742;  -65.700;    0.000;116.44155
 661.36;   61.042;  -16.900;    0.000;77.94180
 661.51;   65.242;  -64.800;    0.000;130.04206
 661.67;   -9.258;  -55.100;    0.000;45.84231
 661.82;  124.643;   17.200;    0.000;107.44257
 661.97;  147.243;   50.500;    0.000;96.74283
 662.12;  185.943;   68.500;    0.000;117.44307
 662.27;  145.443;   27.500;    0.000;117.94333
 662.43;  113.844;  -41.700;    0.000;155.54358
 662.58;   89.544;    9.400;    0.000;80.14384
 662.73;   35.044;  -56.100;    0.000;91.14409
 662.88;  166.844;   95.800;    0.000;71.04434
 663.03;   34.745;  -38.000;    0.000;72.74460
 663.19;   35.545;   -7.800;    0.000;43.34485
 663.34;   13.345;  -43.300;    0.000;56.64511
 663.49;  191.545;  135.300;    0.000;56.24536
 663.64;   89.446;   24.800;    0.000;64.64562
 663.79;   72.946;    2.700;    0.000;70.24587
 663.95;   -9.954; -125.600;    0.000;115.64612
 664.10;  122.146;   78.700;    0.000;43.44638
 664.25;   -9.753;  -48.500;    0.000;38.74663
 664.40;   26.147;   -1.300;    0.000;27.44689
 664.55;  -20.053;  -65.600;    0.000;45.54714
 664.70;  140.547;   83.200;    0.000;57.34740
 664.86;   99.848;   28.700;    0.000;71.14765
 665.01;   43.948;   14.200;    0.000;29.74790
 665.16;   46.548;    7.300;    0.000;39.24816
 665.31;   49.348;   -1.300;    0.000;50.64841
 665.46;   82.349;   21.000;    0.000;61.34866
 665.62;  -35.451;  -56.500;    0.000;21.04892
 665.77;   -0.851;  -53.200;    0.000;52.34918
 665.92;   79.149;   24.100;    0.000;55.04943
 666.07;    8.150;  -26.200;    0.000;34.34968
 666.22;  -75.650; -100.500;    0.000;24.84994
 666.37;  -50.650; -124.600;    0.000;73.95019
 666.53;   73.450;   76.900;    0.000;-3.44955
 666.68;   25.651;  -34.900;    0.000;60.55070
 666.83;   93.351;   59.500;    0.000;33.85095
 666.98;   32.851;   24.600;    0.000; 8.25121
 667.13;   93.951;   35.000;    0.000;58.95146
 667.28;  -28.748;  -52.500;    0.000;23.75172
 667.44;    0.852;  -27.300;    0.000;28.15197
 667.59;  107.452;   41.400;    0.000;66.05222
 667.74;  -22.948;  -41.900;    0.000;18.95248
 667.89;  -76.647; -126.500;    0.000;49.85273
 668.04;  -40.347;  -72.500;    0.000;32.15299
 668.19;   66.653;   15.400;    0.000;51.25324
 668.35;   73.353;   84.400;    0.000;-11.04651
 668.50;  113.354;   91.900;    0.000;21.45375
 668.65; -107.346; -116.400;    0.000; 9.05401
 668.80;  -50.046;  -62.400;    0.000;12.35426
 668.95;  -34.045;  -57.400;    0.000;23.35451
 669.10;  -35.845;  -59.100;    0.000;23.25476
 669.26;  -69.445;  -87.700;    0.000;18.25502
 669.41;   77.555;   29.700;    0.000;47.85527
 669.56;   94.556;   55.300;    0.000;39.25553
 669.71;   36.356;  -17.100;    0.000;53.45578
 669.86;   82.856;   85.900;    0.000;-3.04397
 670.01;   11.056;  -19.000;    0.000;30.05629
 670.17;   39.957;    5.900;    0.000;34.05654
 670.32;   90.157;   51.100;    0.000;39.05680
 670.47;   40.457;    1.300;    0.000;39.15705
 670.62;   49.857;   17.000;    0.000;32.85731
 670.77;   71.558;   49.700;    0.000;21.85756
 670.92;  -86.942; -108.200;    0.000;21.25781
 671.07; -125.242; -128.200;    0.000; 2.95807
 671.23;   78.058;   58.200;    0.000;19.85833
 671.38;  168.359;  175.900;    0.000;-7.54141
 671.53;  -54.641;  -98.100;    0.000;43.45883
 671.68;  -48.441;  -42.700;    0.000;-5.74091
 671.83;   72.259;   44.000;    0.000;28.25934
 671.98;  109.360;   84.800;    0.000;24.55959
 672.13; -130.040; -144.600;    0.000;14.55986
 672.29;  -42.240;  -63.500;    0.000;21.26010
 672.44;  -64.140; -107.300;    0.000;43.16036
 672.59;   -6.639;  -11.900;    0.000; 5.26061
 672.74;   45.161;    0.500;    0.000;44.66087
 672.89;   30.161;   35.400;    0.000;-5.23888
 673.04;  -41.439;  -81.600;    0.000;40.16137
 673.19;   -0.938;   -8.400;    0.000; 7.46163
 673.35;   38.262;    0.700;    0.000;37.56188
 673.50;  -93.638; -130.600;    0.000;36.96214
 673.65;   85.262;   53.600;    0.000;31.66239
 673.80;   55.763;    0.100;    0.000;55.66264
 673.95;   29.863;    9.700;    0.000;20.16290
 674.10;   40.763;   31.000;    0.000; 9.76315
 674.25;  -12.837;  -30.900;    0.000;18.06341
 674.40;  -30.736;  -16.400;    0.000;-14.33634
 674.56;  -73.936; -110.100;    0.000;36.16391
 674.71;  -14.536;  -36.700;    0.000;22.16417
 674.86;  -80.236;  -81.700;    0.000; 1.46442
 675.01;   75.465;   84.300;    0.000;-8.83533
 675.16;  -76.335;  -86.500;    0.000;10.16493
 675.31;   24.765;   11.500;    0.000;13.26518
 675.46;  -67.835;  -95.700;    0.000;27.86543
 675.61;  122.466;  112.500;    0.000; 9.96569
 675.77;  -22.934;  -61.100;    0.000;38.16595
 675.92;   52.966;   43.500;    0.000; 9.46620
 676.07;  131.166;   80.400;    0.000;50.76646
 676.22;  -20.133;  -25.100;    0.000; 4.96671
 676.37;    7.367;  -36.700;    0.000;44.06696
 676.52;  -19.933;   32.100;    0.000;-52.03278
 676.67;  -77.933;  -81.500;    0.000; 3.56747
 676.82;   12.968;   11.600;    0.000; 1.36773
 676.97;   12.368;   13.600;    0.000;-1.23202
 677.13;  -32.532;  -27.800;    0.000;-4.73177
 677.28;   60.668;   39.500;    0.000;21.16849
 677.43;  -20.531;  -24.000;    0.000; 3.46874
 677.58;   95.769;   59.200;    0.000;36.56900
 677.73;   69.169;   71.500;    0.000;-2.33075
 677.88;  -49.730;  -89.500;    0.000;39.76950
 678.03;   29.270;   41.200;    0.000;-11.93024
 678.18; -108.330; -115.300;    0.000; 6.97002
 678.33;  -69.830;  -54.800;    0.000;-15.02974
 678.49;  -74.629;  -84.200;    0.000; 9.57052
 678.64;    5.571;   20.000;    0.000;-14.42922
 678.79;   24.071;   21.000;    0.000; 3.07103
 678.94;  -41.629;  -37.600;    0.000;-4.02872
 679.09; -117.328; -125.600;    0.000; 8.27154
 679.24;   20.972;   26.000;    0.000;-5.02821
 679.39;  118.872;  117.500;    0.000; 1.37205
 679.54;   48.372;   51.600;    0.000;-3.22770
 679.69;  -18.427;  -66.200;    0.000;47.77255
 679.84;   16.473;   42.700;    0.000;-26.22719
 680.00;  -49.227;  -71.400;    0.000;22.17307
 680.15;  -33.027;  -35.100;    0.000; 2.07331
 680.30; -106.526; -128.100;    0.000;21.57358
 680.45;   40.374;   59.500;    0.000;-19.12617
 680.60;   10.274;  -12.500;    0.000;22.77408
 680.75;   37.674;   -1.200;    0.000;38.87433
 680.90;  -53.125;  -49.200;    0.000;-3.92541
 681.05;   56.075;   63.600;    0.000;-7.52516
 681.20; -109.825; -150.700;    0.000;40.87509
 681.35;  -27.925;  -19.600;    0.000;-8.32465
 681.50;  -30.924;  -35.200;    0.000; 4.27560
 681.66;  -85.924;  -83.500;    0.000;-2.42414
 681.81;  -86.524;  -91.200;    0.000; 4.67611
 681.96; -104.924; -115.100;    0.000;10.17636
 682.11;  -15.123;  -31.600;    0.000;16.47662
 682.26; -100.423;  -98.200;    0.000;-2.22313
 682.41;  -36.123;  -30.800;    0.000;-5.32287
 682.56; -121.123; -113.000;    0.000;-8.12262
 682.71;  102.478;   68.700;    0.000;33.77764
 682.86;   -6.722;  -20.000;    0.000;13.27789
 683.01;  -12.222;  -50.200;    0.000;37.97815
 683.16;  -21.622;   24.600;    0.000;-46.22160
 683.31;  -50.021;  -61.000;    0.000;10.97865
 683.46;   30.579;   32.500;    0.000;-1.92109
 683.62;   41.979;   49.200;    0.000;-7.22084
 683.77;   -9.621;    7.900;    0.000;-17.52058
 683.92; -147.920; -138.600;    0.000;-9.32033
 684.07;   -3.620;   22.100;    0.000;-25.72008
 684.22;  -44.320;  -69.500;    0.000;25.18018
 684.37;  -34.420;  -36.900;    0.000; 2.48043
 684.52;  105.281;   69.900;    0.000;35.38068
 684.67;   -3.419;   -7.000;    0.000; 3.58094
 684.82;   89.581;   63.200;    0.000;26.38119
 684.97;  -81.119;  -81.000;    0.000;-0.11855
 685.12;  -89.218;  -84.400;    0.000;-4.81830
 685.27;  -10.018;  -11.500;    0.000; 1.48196
 685.42;  -44.418;  -49.100;    0.000; 4.68221
 685.57;    8.882;   59.800;    0.000;-50.91753
 685.72;  136.783;  102.700;    0.000;34.08272
 685.88;   56.583;   75.000;    0.000;-18.41703
 686.03;  -58.517;  -52.900;    0.000;-5.61677
 686.18;   20.183;   49.800;    0.000;-29.61652
 686.33;   14.284;   39.600;    0.000;-25.31626
 686.48;  -81.516;  -78.900;    0.000;-2.61600
 686.63;  -21.316;  -32.400;    0.000;11.08425
 686.78;   73.984;   67.300;    0.000; 6.68449
 686.93;   -9.415;  -31.400;    0.000;21.98475
 687.08;  -14.615;   -1.900;    0.000;-12.71499
 687.23;    1.885;  -29.300;    0.000;31.18526
 687.38;  -21.014;   10.900;    0.000;-31.91448
 687.53;  -37.314;  -79.600;    0.000;42.28577
 687.68;  -88.114;  -82.900;    0.000;-5.21397
 687.83;  -16.914;  -25.600;    0.000; 8.68628
 687.98;   -2.513;  -17.700;    0.000;15.18653
 688.13; -101.613;  -85.900;    0.000;-15.71321
 688.28;  -21.413;   -0.300;    0.000;-21.11296
 688.43;   -5.813;   -9.200;    0.000; 3.38729
 688.58;  -21.612;  -31.300;    0.000; 9.68755
 688.73;   24.888;   -9.700;    0.000;34.58780
 688.89;  -85.112;  -52.600;    0.000;-32.51195
 689.04;  -79.812; -102.200;    0.000;22.38831
 689.19;   56.589;   51.100;    0.000; 5.48857
 689.34;   14.189;   -7.500;    0.000;21.68882
 689.49;  -10.611;  -29.300;    0.000;18.68907
 689.64;   31.289;   21.600;    0.000; 9.68933
 689.79;   75.190;   72.800;    0.000; 2.38958
 689.94;  -37.110;  -56.400;    0.000;19.28984
 690.09;   21.690;   34.500;    0.000;-12.80991
 690.24;   80.890;   38.500;    0.000;42.39034
 690.39;   -2.509;  -16.900;    0.000;14.39060
 690.54;  -80.309;  -98.400;    0.000;18.09085
 690.69;   35.991;   14.700;    0.000;21.29110
 690.84;   51.291;   38.100;    0.000;13.19136
 690.99;  -10.408;  -14.000;    0.000; 3.59161
 691.14;  -67.108;  -47.300;    0.000;-19.80813
 691.29;  -76.208;  -70.700;    0.000;-5.50788
 691.44;  -28.508;  -65.000;    0.000;36.49238
 691.59;  -64.507;  -57.300;    0.000;-7.20737
 691.74;   -4.707;  -23.300;    0.000;18.59288
 691.89;   95.993;  101.800;    0.000;-5.80686
 692.04;  -35.307;  -48.600;    0.000;13.29339
 692.19;   40.494;   40.400;    0.000; 0.09365
 692.34;  -79.206;  -71.300;    0.000;-7.90610
 692.49;   96.094;  109.200;    0.000;-13.10584
 692.64; -117.506; -144.900;    0.000;27.39440
 692.79;  -36.005;  -28.100;    0.000;-7.90534
 692.94;  -28.705;  -55.500;    0.000;26.79492
 693.09;   18.195;   12.700;    0.000; 5.49517
 693.24;   12.895;    0.500;    0.000;12.39543
 693.39;   47.996;   38.900;    0.000; 9.09568
 693.54;  -82.304;  -85.100;    0.000; 2.79593
 693.69;   -5.404;   -0.300;    0.000;-5.10381
 693.84;   11.596;   12.100;    0.000;-0.50356
 693.99; -120.303;  -92.800;    0.000;-27.50330
 694.14;   18.197;    6.000;    0.000;12.19695
 694.29;   64.297;   74.800;    0.000;-10.50280
 694.44;   86.097;   67.400;    0.000;18.69746
 694.59;  -23.902;    2.800;    0.000;-26.70229
 694.74;  -17.102;  -39.800;    0.000;22.69797
 694.89;   13.198;   19.000;    0.000;-5.80178
 695.04;   28.498;   51.000;    0.000;-22.50152
 695.19;    9.099;   22.200;    0.000;-13.10127
 695.34;  -42.201;  -65.300;    0.000;23.09899
 695.49;  -65.201;  -41.500;    0.000;-23.70076
 695.64;  -10.801;  -49.500;    0.000;38.69949
 695.79;   22.000;   42.800;    0.000;-20.80025
 695.94;  -44.400;  -20.700;    0.000;-23.70000
 696.09;   52.000;   42.600;    0.000; 9.40000
 696.24;   41.800;   52.100;    0.000;-10.30000
 696.39;  -23.700;  -27.600;    0.000; 3.90000
 696.54;  -27.900;  -16.400;    0.000;-11.50000
 696.69;  -46.100;  -43.200;    0.000;-2.90000
 696.84;    5.300;    2.600;    0.000; 2.70000
 696.99;   46.300;   69.000;    0.000;-22.70000
 697.14;  125.600;   97.800;    0.000;27.80000
 697.29;  -87.800;  -62.100;    0.000;-25.70000
 697.44;  -40.600;  -59.100;    0.000;18.50000
 697.59;   39.900;   80.500;    0.000;-40.60000
 697.74;  -79.400;  -97.000;    0.000;17.60000
 697.89;    7.300;   -0.200;    0.000; 7.50000
 698.04; -126.000; -123.800;    0.000;-2.20000
 698.19;  -59.900;  -13.800;    0.000;-46.10000
 698.34;  -44.600;  -73.800;    0.000;29.20000
 698.49;   75.200;   77.400;    0.000;-2.20000
 698.64;  -29.200;  -17.300;    0.000;-11.90000
 698.79;    9.300;    3.900;    0.000; 5.40000
 698.94;   15.100;  -11.700;    0.000;26.80000
 699.09;   19.200;   39.900;    0.000;-20.70000
 699.24;  -63.200;  -79.600;    0.000;16.40000
 699.39;  -40.200;  -43.700;    0.000; 3.50000
 699.54; -106.800; -136.500;    0.000;29.70000
 699.69;   45.700;   77.900;    0.000;-32.20000
 699.84;    0.300;  -16.600;    0.000;16.90000
 699.99;  -87.500;  -82.100;    0.000;-5.40000
 700.14; -108.800;  -95.000;    0.000;-13.80000
 700.29;  -94.000;  -36.600;    0.000;-57.40000
 700.44;   51.300;   38.600;    0.000;12.70000
 700.59;   -7.900;   -1.300;    0.000;-6.60000
 700.74;  -43.700;  -60.300;    0.000;16.60000
 700.89;  -19.500;    6.500;    0.000;-26.00000
 701.04;  -60.600;  -50.100;    0.000;-10.50000
 701.19;   28.100;   50.700;    0.000;-22.60000
 701.34; -119.300; -152.300;    0.000;33.00000
 701.49; -100.700;  -77.600;    0.000;-23.10000
 701.64;  -36.100;  -70.600;    0.000;34.50000
 701.79;  -25.000;    4.600;    0.000;-29.60000
 701.94;  -47.500;  -69.100;    0.000;21.60000
 702.09;   74.300;   55.500;    0.000;18.80000
 702.24;  -46.900;  -30.300;    0.000;-16.60000
 702.39;  -29.200;    6.400;    0.000;-35.60000
 702.53;  -40.900;  -65.900;    0.000;25.00000
 702.68;   -8.900;   -5.000;    0.000;-3.90000
 702.83; -109.600; -109.200;    0.000;-0.40000
 702.98; -109.900;  -96.100;    0.000;-13.80000
 703.13;   60.900;   41.700;    0.000;19.20000
 703.28;  -13.300;   -8.800;    0.000;-4.50000
 703.43;    7.300;   -6.300;    0.000;13.60000
 703.58;   41.100;   31.000;    0.000;10.10000
 703.73;   -2.800;   -9.100;    0.000; 6.30000
 703.88;  145.900;  188.700;    0.000;-42.80000
 704.03;   64.300;   50.300;    0.000;14.00000
 704.18;  -47.200;  -56.100;    0.000; 8.90000
 704.33;  -81.300; -106.400;    0.000;25.10000
 704.48;  -37.600;   -1.400;    0.000;-36.20000
 704.63;  -38.000;  -83.000;    0.000;45.00000
 704.78;  -12.100;   -6.700;    0.000;-5.40000
 704.93;   36.200;   23.700;    0.000;12.50000
 705.08;   17.100;   44.500;    0.000;-27.40000
 705.23;    2.200;   13.300;    0.000;-11.10000
 705.38; -127.800;  -98.900;    0.000;-28.90000
 705.52; -102.100; -101.100;    0.000;-1.00000
 705.67;   11.900;   30.100;    0.000;-18.20000
 705.82;  -43.400;  -34.200;    0.000;-9.20000
 705.97;  -56.400;  -77.100;    0.000;20.70000
 706.12;  -21.600;  -12.200;    0.000;-9.40000
 706.27;  -54.800;  -17.400;    0.000;-37.40000
 706.42;   -0.800;    5.500;    0.000;-6.30000
 706.57;  -17.700;  -14.400;    0.000;-3.30000
 706.72;   64.800;   59.600;    0.000; 5.20000
 706.87;   40.400;   60.100;    0.000;-19.70000
 707.02;   78.700;  101.700;    0.000;-23.00000
 707.17;  -32.800;  -27.200;    0.000;-5.60000
 707.32;  -41.000;  -42.900;    0.000; 1.90000
 707.47;   45.800;   42.000;    0.000; 3.80000
 707.62;   73.200;   97.100;    0.000;-23.90000
 707.76;  -34.100;  -16.300;    0.000;-17.80000
 707.91; -117.200; -109.300;    0.000;-7.89999
 708.06;   32.200;   33.500;    0.000;-1.30000
 708.21;   95.400;  123.700;    0.000;-28.30000
 708.36;  -12.900;   10.100;    0.000;-23.00000
 708.51;   -0.700;  -31.600;    0.000;30.90000
 708.66;  -17.400;  -14.200;    0.000;-3.20000
 708.81;  101.600;   59.800;    0.000;41.80000
 708.96;  -80.100;  -75.600;    0.000;-4.50000
 709.11;  -51.000;   -8.900;    0.000;-42.10000
 709.26;   -8.900;   22.000;    0.000;-30.90000
 709.41;    6.100;    6.300;    0.000;-0.20000
 709.55; -156.000; -121.200;    0.000;-34.80000
 709.70;   49.800;   27.400;    0.000;22.40000
 709.85; -100.100;  -80.600;    0.000;-19.50000
 710.00;  -77.000; -100.000;    0.000;23.00000
 710.15;   58.600;   55.600;    0.000; 3.00000
 710.30;  -96.800; -110.100;    0.000;13.30000
 710.45; -121.600; -110.400;    0.000;-11.20000
 710.60;  -55.000;  -82.000;    0.000;27.00000
 710.75;   72.300;  104.900;    0.000;-32.60000
 710.90;   29.800;   17.700;    0.000;12.10000
 711.05; -114.700;  -98.200;    0.000;-16.50000
 711.19;  -38.200;  -11.900;    0.000;-26.30000
 711.34;  -89.800; -107.600;    0.000;17.80000
 711.49;    3.700;   41.400;    0.000;-37.70000
 711.64;  -24.100;  -17.200;    0.000;-6.90000
 711.79; -174.300; -131.900;    0.000;-42.40001
 711.94;  -19.600;  -27.300;    0.000; 7.70000
 712.09;  -39.500;  -47.700;    0.000; 8.20000
 712.24; -172.200; -159.000;    0.000;-13.20000
 712.39;   31.200;   45.100;    0.000;-13.90000
 712.54;  121.500;  102.000;    0.000;19.50000
 712.68;  -32.200;  -19.500;    0.000;-12.70000
 712.83;    3.400;   -8.300;    0.000;11.70000
 712.98;  -51.100;  -42.800;    0.000;-8.30000
 713.13;  -28.200;  -49.100;    0.000;20.90000
 713.28;  -31.600;   21.800;    0.000;-53.40000
 713.43;   15.400;   -1.400;    0.000;16.80000
 713.58;  -13.500;    3.300;    0.000;-16.80000
 713.73;  -62.000;  -41.600;    0.000;-20.40000
 713.88;   11.600;    9.200;    0.000; 2.40000
 714.03;   39.900;   31.600;    0.000; 8.30000
 714.17;   38.000;    0.700;    0.000;37.30000
 714.32;  -88.100;  -73.000;    0.000;-15.10000
 714.47;   66.300;   72.800;    0.000;-6.50000
 714.62;   -1.400;   19.900;    0.000;-21.30000
 714.77;   99.800;  108.800;    0.000;-9.00000
 714.92;  -21.900;  -11.700;    0.000;-10.20000
 715.07;  -66.700;  -81.300;    0.000;14.60001
 715.22;  -39.100;  -36.900;    0.000;-2.20000
 715.36;  -50.000;  -75.700;    0.000;25.70000
 715.51;   -9.300;   18.900;    0.000;-28.20000
 715.66;  -25.800;  -42.800;    0.000;17.00000
 715.81;   25.800;   43.700;    0.000;-17.90000
 715.96; -119.800; -137.100;    0.000;17.30000
 716.11;   74.400;   90.200;    0.000;-15.80000
 716.26;  -64.800;  -81.000;    0.000;16.20000
 716.41;    5.600;    3.200;    0.000; 2.40000
 716.55;  -18.200;  -33.700;    0.000;15.50000
 716.70;  -15.500;   -4.000;    0.000;-11.50000
 716.85;   44.500;   12.200;    0.000;32.30000
 717.00;   70.600;  105.200;    0.000;-34.60000
 717.15;   48.200;   38.000;    0.000;10.20000
 717.30;  -61.400;  -45.100;    0.000;-16.30000
 717.45;   52.000;   46.900;    0.000; 5.10000
 717.60;   75.700;   79.000;    0.000;-3.30000
 717.74;  -43.400;  -20.400;    0.000;-23.00000
 717.89;  -12.400;   22.200;    0.000;-34.60000
 718.04;   15.300;    3.400;    0.000;11.90000
 718.19;  -29.400;  -17.300;    0.000;-12.10000
 718.34;   74.500;   70.400;    0.000; 4.10000
 718.49;  -16.500;   -2.300;    0.000;-14.20000
 718.64;   -7.500;   10.400;    0.000;-17.90000
 718.78;  -53.200;  -20.400;    0.000;-32.80000
 718.93;   -0.700;   -4.500;    0.000; 3.80000
 719.08;   -1.000;   -1.600;    0.000; 0.60000
 719.23;   -7.500;  -24.600;    0.000;17.10000
 719.38;  -77.400;  -66.200;    0.000;-11.20000
 719.53; -104.400;  -92.100;    0.000;-12.30000
 719.68;  -28.000;  -12.100;    0.000;-15.90000
 719.82;   -8.200;  -12.700;    0.000; 4.50000
 719.97;   18.900;   40.200;    0.000;-21.30000
 720.12;  -76.900; -110.200;    0.000;33.30000
 720.27;   -1.600;  -37.900;    0.000;36.30000
 720.42;  -16.900;  -30.800;    0.000;13.90000
 720.57;  -52.700;  -40.300;    0.000;-12.40000
 720.71;  -62.600;  -93.300;    0.000;30.70000
 720.86;  200.700;  162.600;    0.000;38.09999
 721.01;  -44.200;  -22.700;    0.000;-21.50000
 721.16;  -64.600;  -80.700;    0.000;16.10000
 721.31;  128.600;  128.800;    0.000;-0.20000
 721.46;  -57.000;  -40.700;    0.000;-16.30000
 721.61;  -69.300;  -87.600;    0.000;18.30000
 721.75;  -89.000;  -73.900;    0.000;-15.10000
 721.90;   33.300;   12.900;    0.000;20.40000
 722.05;   45.700;   39.000;    0.000; 6.70000
 722.20;   25.600;   48.000;    0.000;-22.40000
 722.35;   39.100;   34.600;    0.000; 4.50000
 722.50;  142.100;  144.600;    0.000;-2.50000
 722.64; -132.300; -109.300;    0.000;-23.00000
 722.79;  -10.200;  -12.900;    0.000; 2.70000
 722.94;  -52.300;  -32.500;    0.000;-19.80000
 723.09;  -92.400; -111.100;    0.000;18.70000
 723.24;   -0.100;   -4.900;    0.000; 4.80000
 723.39; -113.900;  -82.300;    0.000;-31.60000
 723.53;   -2.200;  -13.400;    0.000;11.20000
 723.68;   -9.400;  -50.000;    0.000;40.60000
 723.83;    6.000;   46.300;    0.000;-40.30000
 723.98;  -11.600;  -54.000;    0.000;42.40000
 724.13;   -6.800;   18.200;    0.000;-25.00000
 724.27;   38.700;   33.600;    0.000; 5.10000
 724.42; -112.000; -118.800;    0.000; 6.80000
 724.57;    1.900;   18.600;    0.000;-16.70000
 724.72;  -28.600;  -42.000;    0.000;13.40000
 724.87;  -24.700;  -31.900;    0.000; 7.20000
 725.02;   12.800;   17.300;    0.000;-4.50000
 725.16;  -70.700;  -75.400;    0.000; 4.70000
 725.31;   64.000;   52.200;    0.000;11.80000
 725.46;    7.800;  -22.100;    0.000;29.90000
 725.61; -109.400;  -62.100;    0.000;-47.30000
 725.76; -104.000; -108.000;    0.000; 4.00000
 725.90;   39.900;   31.100;    0.000; 8.80000
 726.05;    6.300;  -18.100;    0.000;24.40000
 726.20; -106.200;  -98.900;    0.000;-7.30000
 726.35; -150.500; -162.000;    0.000;11.50000
 726.50;   -4.100;  -10.800;    0.000; 6.70000
 726.65;   18.600;    0.200;    0.000;18.40000
 726.79;  101.200;  110.300;    0.000;-9.10001
 726.94;  -79.100;  -94.500;    0.000;15.40000
 727.09;  125.300;   97.800;    0.000;27.50000
 727.24;   61.800;   33.800;    0.000;28.00000
 727.39;   96.400;   91.400;    0.000; 5.00000
 727.53;   10.100;  -15.300;    0.000;25.40000
 727.68;  -56.800;  -37.800;    0.000;-19.00000
 727.83;  -97.100; -101.400;    0.000; 4.30000
 727.98;   49.700;   56.200;    0.000;-6.50000
 728.13;  -77.300;  -76.500;    0.000;-0.80000
 728.27;   18.500;   29.100;    0.000;-10.60000
 728.42;   82.700;   79.200;    0.000; 3.50000
 728.57;   49.300;   58.700;    0.000;-9.40000
 728.72;  -20.200;  -42.800;    0.000;22.60000
 728.87;   27.900;    7.500;    0.000;20.40000
 729.01;  -41.800;  -46.000;    0.000; 4.20000
 729.16;   10.100;   24.800;    0.000;-14.70000
 729.31;  -95.100; -109.200;    0.000;14.10000
 729.46;   28.600;   32.100;    0.000;-3.50000
 729.60;  -54.400;  -80.900;    0.000;26.50000
 729.75;  -19.600;   -5.300;    0.000;-14.30000
 729.90;  -71.000;  -78.900;    0.000; 7.90000
 730.05;  170.300;  168.900;    0.000; 1.40001
 730.20;  -29.800;  -82.100;    0.000;52.30000
 730.34;  -93.100;  -56.200;    0.000;-36.90000
 730.49;  103.400;  106.700;    0.000;-3.30000
 730.64; -135.100; -152.500;    0.000;17.39999
 730.79; -146.000; -118.900;    0.000;-27.10000
 730.94; -109.600;  -85.400;    0.000;-24.20000
 731.08;   -0.700;  -14.800;    0.000;14.10000
 731.23;   -6.200;   -4.100;    0.000;-2.10000
 731.38;   -8.500;  -30.500;    0.000;22.00000
 731.53;  -41.600;  -59.100;    0.000;17.50000
 731.67;   92.800;   62.200;    0.000;30.60000
 731.82;   -7.200;    1.400;    0.000;-8.60000
 731.97;  -42.300;  -66.300;    0.000;24.00000
 732.12;  -90.200;  -95.700;    0.000; 5.50000
 732.27;  -95.900;  -86.300;    0.000;-9.60000
 732.41;   38.300;   59.200;    0.000;-20.90000
 732.56;  230.800;  207.300;    0.000;23.50000
 732.71;  -44.800;  -57.700;    0.000;12.90000
 732.86;   19.700;    3.900;    0.000;15.80000
 733.00;   63.300;   73.900;    0.000;-10.60000
 733.15;  -27.800;  -30.000;    0.000; 2.20000
 733.30; -108.300;  -98.400;    0.000;-9.90000
 733.45; -104.200; -132.200;    0.000;28.00000
 733.59;   17.900;   14.700;    0.000; 3.20000
 733.74;   66.700;   66.200;    0.000; 0.50000
 733.89;  -89.700;  -75.600;    0.000;-14.10000
 734.04;  -30.900;  -73.700;    0.000;42.80000
 734.18;   22.600;   32.100;    0.000;-9.50000
 734.33; -113.000; -116.100;    0.000; 3.10000
 734.48;  -56.200;  -47.200;    0.000;-9.00000
 734.63;   46.500;   55.700;    0.000;-9.20000
 734.77;  -50.500;   -8.100;    0.000;-42.40000
 734.92;   27.800;  -11.100;    0.000;38.90000
 735.07;   56.500;   51.700;    0.000; 4.80000
 735.22;  -44.900;  -54.200;    0.000; 9.30000
 735.37;  -33.800;  -58.300;    0.000;24.50000
 735.51;   38.100;   41.900;    0.000;-3.80000
 735.66;    7.200;   10.300;    0.000;-3.10000
 735.81;   63.400;   60.600;    0.000; 2.80000
 735.96;  -99.100;  -73.400;    0.000;-25.70000
 736.10;    4.200;  -10.700;    0.000;14.90000
 736.25;  -12.500;   16.800;    0.000;-29.30000
 736.40;   44.200;   -3.700;    0.000;47.90000
 736.54;  136.000;   94.100;    0.000;41.90000
 736.69; -103.900;  -95.300;    0.000;-8.60000
 736.84;   14.900;   36.300;    0.000;-21.40000
 736.99;  -35.400;  -38.000;    0.000; 2.60000
 737.13;   49.700;   40.400;    0.000; 9.30000
 737.28;  -73.600;  -49.600;    0.000;-24.00000
 737.43;   67.100;  119.300;    0.000;-52.20000
 737.58;   12.500;  -18.700;    0.000;31.20000
 737.72;  -18.100;    0.900;    0.000;-19.00000
 737.87;  -69.900;  -82.600;    0.000;12.70000
 738.02;   81.100;  111.400;    0.000;-30.30000
 738.17;  -78.800; -100.700;    0.000;21.89999
 738.31;   36.600;   58.400;    0.000;-21.80000
 738.46;   13.800;  -12.900;    0.000;26.70000
 738.61;  -15.200;   13.600;    0.000;-28.80000
 738.76;    7.800;    7.000;    0.000; 0.80000
 738.90;   21.900;   17.900;    0.000; 4.00000
 739.05;  -97.000; -103.700;    0.000; 6.70000
 739.20;   32.400;   29.700;    0.000; 2.70000
 739.34;    9.200;    5.400;    0.000; 3.80000
 739.49;  -28.700;  -25.000;    0.000;-3.70000
 739.64;   13.100;    7.700;    0.000; 5.40000
 739.79; -103.400;  -84.000;    0.000;-19.40000
 739.93; -137.800; -105.700;    0.000;-32.10001
 740.08;  -68.700;  -25.400;    0.000;-43.30000
 740.23;  -51.400;  -60.700;    0.000; 9.30000
 740.38;  -69.800;  -51.300;    0.000;-18.50000
 740.52;  -38.500;  -18.900;    0.000;-19.60000
 740.67;   -2.900;   23.900;    0.000;-26.80000
 740.82;  -34.000;  -55.900;    0.000;21.90000
 740.96;  -31.900;    0.300;    0.000;-32.20000
 741.11;  -96.600; -125.500;    0.000;28.90000
 741.26;  109.600;  115.900;    0.000;-6.30000
 741.41;   54.900;   61.200;    0.000;-6.30000
 741.55;  -35.300;  -35.600;    0.000; 0.30000
 741.70;  -82.900;  -69.100;    0.000;-13.80000
 741.85;   -0.200;   -3.300;    0.000; 3.10000
 741.99;  -21.600;  -32.200;    0.000;10.60000
 742.14;  -42.700;  -58.200;    0.000;15.50000
 742.29;   15.800;   15.500;    0.000; 0.30000
 742.43;  -56.800;  -64.700;    0.000; 7.90000
 742.58; -112.500;  -85.300;    0.000;-27.20000
 742.73;   -4.500;   42.900;    0.000;-47.40000
 742.88;  -36.100;  -32.600;    0.000;-3.50000
 743.02;    0.600;   23.800;    0.000;-23.20000
 743.17;  -54.900;  -60.900;    0.000; 6.00000
 743.32;  -29.200;  -21.700;    0.000;-7.50000
 743.46;  -17.000;  -56.700;    0.000;39.70000
 743.61;  -46.200;  -58.000;    0.000;11.80000
 743.76;  -23.800;   32.100;    0.000;-55.90000
 743.90;  -75.300;  -60.800;    0.000;-14.50000
 744.05;  -72.000;  -70.000;    0.000;-2.00000
 744.20;   39.200;   78.800;    0.000;-39.60000
 744.35;  -12.700;  -39.600;    0.000;26.90000
 744.49;   47.000;   51.600;    0.000;-4.60000
 744.64;  -15.800;    4.100;    0.000;-19.90000
 744.79;   34.300;   34.500;    0.000;-0.20000
 744.93;   -8.500;   -4.000;    0.000;-4.50000
 745.08;    7.100;    7.900;    0.000;-0.80000
 745.23;  -93.300; -101.000;    0.000; 7.70000
 745.37;  -56.400;  -38.900;    0.000;-17.50000
 745.52;  -24.600;   -5.800;    0.000;-18.80000
 745.67;   51.600;   37.500;    0.000;14.10000
 745.81;  -33.600;  -45.500;    0.000;11.90000
 745.96;  -54.700;  -36.000;    0.000;-18.70000
 746.11;  -89.900;  -96.300;    0.000; 6.40000
 746.26;   -7.100;  -17.700;    0.000;10.60000
 746.40;  -85.400;  -62.600;    0.000;-22.80000
 746.55;   42.300;   49.100;    0.000;-6.80000
 746.70;  -51.800;  -49.300;    0.000;-2.50000
 746.84;   -7.300;   -6.300;    0.000;-1.00000
 746.99;  -75.400;  -71.200;    0.000;-4.20000
 747.14;    2.900;  -22.500;    0.000;25.40000
 747.28;  -58.400;  -74.600;    0.000;16.20000
 747.43; -106.200;  -85.100;    0.000;-21.10000
 747.58;  -77.200;  -77.800;    0.000; 0.60001
 747.72;  -47.400;  -37.800;    0.000;-9.60000
 747.87;  -41.200;  -27.500;    0.000;-13.70000
 748.02;    8.400;   21.300;    0.000;-12.90000
 748.16;  -68.900;  -54.600;    0.000;-14.30000
 748.31;   41.700;   68.200;    0.000;-26.50000
 748.46; -122.600; -117.500;    0.000;-5.10000
 748.60;  -27.900;  -16.500;    0.000;-11.40000
 748.75;  -56.300;  -63.700;    0.000; 7.40000
 748.90;   41.100;   31.700;    0.000; 9.40000
 749.04;   97.200;   91.000;    0.000; 6.20000
 749.19;   -8.300;  -15.800;    0.000; 7.50000
 749.34;  -37.300;  -33.800;    0.000;-3.50000
 749.48;  126.900;  164.600;    0.000;-37.70000
 749.63;  -72.100;  -70.200;    0.000;-1.90000
 749.78; -106.000;  -91.200;    0.000;-14.80000
 749.92;  -64.900;  -32.600;    0.000;-32.30000
 750.07;  121.500;  147.900;    0.000;-26.39999
 750.22;  -48.900;  -45.100;    0.000;-3.80000
 750.36;  -28.500;   -4.600;    0.000;-23.90000
 750.51;  -22.300;  -62.500;    0.000;40.20000
 750.65;  106.200;  105.900;    0.000; 0.30000
 750.80;  -70.900;  -73.300;    0.000; 2.40000
 750.95;  -57.600;  -29.600;    0.000;-28.00000
 751.09; -127.600; -125.600;    0.000;-2.00000
 751.24;  -77.400;  -87.900;    0.000;10.50000
 751.39;   70.500;   52.000;    0.000;18.50000
 751.53;  -59.100;  -32.100;    0.000;-27.00000
 751.68;   27.200;   10.400;    0.000;16.80000
 751.83;   20.600;   41.900;    0.000;-21.30000
 751.97;  -31.800;  -47.300;    0.000;15.50000
 752.12;   -6.500;    2.200;    0.000;-8.70000
 752.27;    5.700;   22.100;    0.000;-16.40000
 752.41;   21.000;   37.700;    0.000;-16.70000
 752.56;   66.400;   34.300;    0.000;32.10000
 752.71;  -21.500;  -27.200;    0.000; 5.70000
 752.85;  -12.200;  -52.200;    0.000;40.00000
 753.00;  -40.500;  -39.000;    0.000;-1.50000
 753.14;   67.200;   71.600;    0.000;-4.40000
 753.29;   12.800;   -7.500;    0.000;20.30000
 753.44;  -98.900; -105.300;    0.000; 6.40000
 753.58;   24.400;    8.200;    0.000;16.20000
 753.73;   26.400;   19.200;    0.000; 7.20000
 753.88;   20.900;   54.200;    0.000;-33.30000
 754.02;  -32.000;  -70.700;    0.000;38.70000
 754.17;   50.700;   43.700;    0.000; 7.00000
 754.31;  -19.000;  -47.500;    0.000;28.50000
 754.46;  -92.700;  -72.600;    0.000;-20.10000
 754.61; -101.300;  -91.400;    0.000;-9.90000
 754.75;   51.900;   29.100;    0.000;22.80000
 754.90;   29.400;   32.500;    0.000;-3.10000
 755.05;  -51.100;  -23.700;    0.000;-27.40000
 755.19; -111.700; -121.800;    0.000;10.10001
 755.34;  -64.900;  -36.000;    0.000;-28.90000
 755.48;  -15.900;  -58.800;    0.000;42.90000
 755.63;  -59.000;  -29.600;    0.000;-29.40000
 755.78;  661.700;  635.700;    0.000;26.00000
 755.92;   25.000;   32.100;    0.000;-7.10000
 756.07;   30.200;   29.700;    0.000; 0.50000
 756.22; -144.300; -114.700;    0.000;-29.60001
 756.36;   72.900;   87.400;    0.000;-14.50000
 756.51;   27.200;    8.100;    0.000;19.10000
 756.65;   10.600;  -14.700;    0.000;25.30000
 756.80;  -59.600;  -49.400;    0.000;-10.20000
 756.95;   39.000;   27.500;    0.000;11.50000
 757.09;    1.400;   23.300;    0.000;-21.90000
 757.24;  -12.000;  -28.300;    0.000;16.30000
 757.38;  -20.100;  -27.900;    0.000; 7.80000
 757.53;   42.300;    9.300;    0.000;33.00000
 757.68;  -38.300;  -31.100;    0.000;-7.20000
 757.82;  -67.600;  -87.300;    0.000;19.70000
 757.97;  -43.300;  -27.800;    0.000;-15.50000
 758.11;  -34.300;  -41.700;    0.000; 7.40000
 758.26;   77.400;   66.700;    0.000;10.70000
 758.41;  -39.800;  -61.700;    0.000;21.90000
 758.55;  -76.700;  -52.700;    0.000;-24.00000
 758.70;  -89.200;  -63.500;    0.000;-25.70000
 758.84;   11.500;   42.200;    0.000;-30.70000
 758.99;   47.800;   37.700;    0.000;10.10000
 759.14;   40.900;   32.100;    0.000; 8.80000
 759.28; -108.200; -102.700;    0.000;-5.50000
 759.43;  -69.200;  -29.000;    0.000;-40.20000
 759.57;   45.300;   23.700;    0.000;21.60000
 759.72;   13.000;  -34.600;    0.000;47.60000
 759.87;    0.900;  -13.400;    0.000;14.30000
 760.01;  -95.100;  -59.000;    0.000;-36.10000
 760.16;   34.400;   35.000;    0.000;-0.60000
 760.30;   11.200;   34.200;    0.000;-23.00000
 760.45;  -45.600;  -49.100;    0.000; 3.50000
 760.60;  -43.500;    6.400;    0.000;-49.90000
 760.74;  118.900;   95.400;    0.000;23.50000
 760.89;  -48.500;  -41.000;    0.000;-7.50000
 761.03;  -86.500;  -86.200;    0.000;-0.30000
 761.18;  -36.400;   -3.500;    0.000;-32.90000
 761.32;   -1.200;  -15.400;    0.000;14.20000
 761.47;  -52.200;  -10.000;    0.000;-42.20000
 761.62;   57.900;   35.900;    0.000;22.00000
 761.76;  -45.200;  -51.000;    0.000; 5.80000
 761.91;   73.600;   59.600;    0.000;14.00000
 762.05; -106.100; -110.700;    0.000; 4.60000
 762.20;   -2.900;   14.400;    0.000;-17.30000
 762.35;   56.700;   48.400;    0.000; 8.30000
 762.49;  -38.900;  -48.300;    0.000; 9.40000
 762.64;  -46.000;  -15.500;    0.000;-30.50000
 762.78;  -58.000;  -19.400;    0.000;-38.60000
 762.93;   50.800;   59.900;    0.000;-9.10000
 763.07;  -70.500;  -68.600;    0.000;-1.90000
 763.22; -105.000; -100.700;    0.000;-4.30000
 763.37; -100.600;  -90.800;    0.000;-9.80000
 763.51;  -12.900;  -23.200;    0.000;10.30000
 763.66;  -93.300; -113.500;    0.000;20.20000
 763.80;  -74.900;  -42.200;    0.000;-32.70000
 763.95; -118.700; -123.200;    0.000; 4.50000
 764.09;   85.100;   91.900;    0.000;-6.80000
 764.24; -121.000; -122.800;    0.000; 1.80000
 764.38;   89.300;   89.500;    0.000;-0.20000
 764.53;  -63.900;  -55.000;    0.000;-8.90000
 764.68;  -90.100;  -54.600;    0.000;-35.50000
 764.82; -107.900; -126.800;    0.000;18.90000
 764.97;  -52.400;  -49.400;    0.000;-3.00000
 765.11;  -53.600;  -74.000;    0.000;20.40000
 765.26;   23.400;   58.400;    0.000;-35.00000
 765.40;   23.900;   22.400;    0.000; 1.50000
 765.55;  -72.900;  -48.800;    0.000;-24.10000
 765.69;  -35.000;  -41.600;    0.000; 6.60000
 765.84;   74.500;   66.100;    0.000; 8.40000
 765.99;   22.100;   21.200;    0.000; 0.90000
 766.13;    9.700;  -13.600;    0.000;23.30000
 766.28;    9.300;   18.700;    0.000;-9.40000
 766.42;    3.400;   26.100;    0.000;-22.70000
 766.57;  -40.800;  -21.300;    0.000;-19.50000
 766.71;   29.000;   50.600;    0.000;-21.60000
 766.86;   47.500;   38.200;    0.000; 9.30000
 767.00;  -97.100;  -70.400;    0.000;-26.70000
 767.15;   65.200;   66.600;    0.000;-1.40000
 767.29;   26.800;   52.200;    0.000;-25.40000
 767.44;  -70.700;  -94.400;    0.000;23.70000
 767.59;    2.400;    5.700;    0.000;-3.30000
 767.73; -122.400; -148.300;    0.000;25.90000
 767.88;  -80.500;  -69.200;    0.000;-11.30000
 768.02; -109.000;  -80.500;    0.000;-28.50000
 768.17;  -61.300;  -64.200;    0.000; 2.90000
 768.31;   -7.100;    3.000;    0.000;-10.10000
 768.46;   33.100;   41.600;    0.000;-8.50000
 768.60;  -10.500;   -0.800;    0.000;-9.70000
 768.75;   47.300;   34.400;    0.000;12.90000
 768.89;  -57.200;  -71.600;    0.000;14.40000
 769.04;  -37.200;  -42.100;    0.000; 4.90000
 769.18;  -91.400;  -54.800;    0.000;-36.60000
 769.33;  -86.700;  -52.200;    0.000;-34.50000
 769.47;   24.000;   20.400;    0.000; 3.60000
 769.62;  -34.300;  -24.300;    0.000;-10.00000
 769.77; -116.100; -131.300;    0.000;15.20000
 769.91; -127.100; -113.100;    0.000;-14.00000
 770.06;  -66.700;  -39.900;    0.000;-26.80000
 770.20;  -79.700;  -45.700;    0.000;-34.00000
 770.35;  -23.600;  -36.800;    0.000;13.20000
 770.49;  -87.900;  -78.200;    0.000;-9.70000
 770.64;  -27.400;  -17.600;    0.000;-9.80000
 770.78;   79.400;   85.100;    0.000;-5.70000
 770.93;   22.000;   15.300;    0.000; 6.70000
 771.07;   29.000;   27.800;    0.000; 1.20000
 771.22;   12.200;  -16.600;    0.000;28.80000
 771.36;  -57.700;  -23.900;    0.000;-33.80000
 771.51;  -27.800;  -27.200;    0.000;-0.60000
 771.65;  -17.100;   24.300;    0.000;-41.40000
 771.80;   36.400;   -1.800;    0.000;38.20000
 771.94;   37.800;   66.600;    0.000;-28.80000
 772.09;  -15.300;   -3.000;    0.000;-12.30000
 772.23;  117.100;  137.500;    0.000;-20.40000
 772.38;  -36.500;  -39.600;    0.000; 3.10000
 772.52;  -42.900;  -43.600;    0.000; 0.70000
 772.67;    2.400;    6.300;    0.000;-3.90000
 772.81;   79.700;  102.900;    0.000;-23.20000
 772.96;  -11.400;  -11.700;    0.000; 0.30000
 773.10;  -17.500;   10.900;    0.000;-28.40000
 773.25; -110.200; -162.600;    0.000;52.40001
 773.39; -100.800;  -85.800;    0.000;-15.00000
 773.54;  -46.300;  -46.300;    0.000; 0.00000
 773.68;   28.000;   57.900;    0.000;-29.90000
 773.83;  -27.500;  -38.100;    0.000;10.60000
 773.97;  -21.200;   -3.700;    0.000;-17.50000
 774.12;  -87.700;  -84.500;    0.000;-3.20000
 774.26;  107.000;   62.200;    0.000;44.80000
 774.41;  -37.200;  -44.900;    0.000; 7.70000
 774.55;  -12.700;  -11.600;    0.000;-1.10000
 774.70;  116.600;  107.800;    0.000; 8.80000
 774.84;  -39.500;    3.300;    0.000;-42.80000
 774.99;  -83.700;  -86.100;    0.000; 2.40000
 775.13;   14.200;   26.400;    0.000;-12.20000
 775.28;   13.400;   15.500;    0.000;-2.10000
 775.42;   23.500;   37.700;    0.000;-14.20000
 775.57;  -74.500;  -86.600;    0.000;12.10000
 775.71;   14.200;   28.000;    0.000;-13.80000
 775.86; -148.100; -114.600;    0.000;-33.50001
 776.00;    6.200;   12.700;    0.000;-6.50000
 776.15;  -41.300;  -63.300;    0.000;22.00000
 776.29;   30.900;   -2.800;    0.000;33.70000
 776.44;  -51.100;  -63.700;    0.000;12.60000
 776.58;  -90.600;  -67.100;    0.000;-23.50000
 776.73; -105.200;  -94.200;    0.000;-11.00000
 776.87;  -13.600;    0.100;    0.000;-13.70000
 777.02;  -42.300;  -71.900;    0.000;29.60000
 777.16;  -17.700;    8.200;    0.000;-25.90000
 777.30;    1.300;   -4.000;    0.000; 5.30000
 777.45;    9.300;    7.300;    0.000; 2.00000
 777.59;   54.000;   40.200;    0.000;13.80000
 777.74;  -29.200;   -9.100;    0.000;-20.10000
 777.88;  -99.600;  -69.200;    0.000;-30.40000
 778.03;  136.700;  155.800;    0.000;-19.10001
 778.17;  -13.400;   -1.700;    0.000;-11.70000
 778.32;  -69.200;  -60.000;    0.000;-9.20000
 778.46;  -80.900;  -73.400;    0.000;-7.50000
 778.61;   51.400;   51.000;    0.000; 0.40000
 778.75;  -44.100;  -62.600;    0.000;18.50000
 778.90;  -53.000;  -38.300;    0.000;-14.70000
 779.04;  -10.600;  -37.300;    0.000;26.70000
 779.19;  -86.300;  -71.100;    0.000;-15.20000
 779.33; -129.300; -138.300;    0.000; 9.00000
 779.47; -113.400;  -67.000;    0.000;-46.40000
 779.62;  -16.700;  -19.800;    0.000; 3.10000
 779.76;  -69.300;  -25.200;    0.000;-44.10000
 779.91;  -92.300;  -86.400;    0.000;-5.90000
 780.05;  -69.700;  -51.000;    0.000;-18.70000
 780.20; -101.500; -119.200;    0.000;17.70000
 780.34;  -82.700;  -95.000;    0.000;12.30000
 780.49;  -51.100;  -49.100;    0.000;-2.00000
 780.63;   18.800;   33.400;    0.000;-14.60000
 780.78;   -1.700;  -10.200;    0.000; 8.50000
 780.92;  -51.100;    1.100;    0.000;-52.20000
 781.06;  -37.300;  -23.900;    0.000;-13.40000
 781.21;  -40.100;  -24.400;    0.000;-15.70000
 781.35;  -11.600;  -11.800;    0.000; 0.20000
 781.50;   23.600;   43.000;    0.000;-19.40000
 781.64;    8.200;   -1.200;    0.000; 9.40000
 781.79;   25.400;   23.100;    0.000; 2.30000
 781.93;    0.700;    8.200;    0.000;-7.50000
 782.08;  -42.100;  -10.900;    0.000;-31.20000
 782.22;  -48.200;  -52.100;    0.000; 3.90000
 782.36;   30.600;   43.700;    0.000;-13.10000
 782.51;  -95.700;  -67.200;    0.000;-28.50000
 782.65;  -49.200;  -39.100;    0.000;-10.10000
 782.80;  -40.400;  -51.100;    0.000;10.70000
 782.94;  -73.000;  -50.900;    0.000;-22.10000
 783.09;  -26.700;  -39.600;    0.000;12.90000
 783.23; -109.200;  -91.200;    0.000;-18.00000
 783.37; -156.400; -146.800;    0.000;-9.59999
 783.52;  -33.600;  -37.400;    0.000; 3.80000
 783.66;   -1.600;  -30.500;    0.000;28.90000
 783.81;  103.900;   91.200;    0.000;12.70000
 783.95;   20.800;    3.800;    0.000;17.00000
 784.10;  -62.800;  -27.600;    0.000;-35.20000
 784.24;  100.700;  127.300;    0.000;-26.60001
 784.38;  -36.800;  -32.600;    0.000;-4.20000
 784.53; -175.100; -166.100;    0.000;-9.00000
 784.67; -108.700; -107.700;    0.000;-1.00000
 784.82;  174.100;  191.200;    0.000;-17.09999
 784.96;    8.200;   38.100;    0.000;-29.90000
 785.11;  -41.700;  -25.600;    0.000;-16.10000
 785.25;   40.300;   54.100;    0.000;-13.80000
 785.39; -105.800; -127.000;    0.000;21.20000
 785.54;  -55.700;  -27.700;    0.000;-28.00000
 785.68;   -4.200;   20.100;    0.000;-24.30000
 785.83;  -22.800;    0.600;    0.000;-23.40000
 785.97;  -43.000;    1.600;    0.000;-44.60000
 786.11;   88.100;   63.100;    0.000;25.00000
 786.26; -114.700;  -80.500;    0.000;-34.20000
 786.40;   87.000;   63.500;    0.000;23.50000
 786.55;    2.600;    2.500;    0.000; 0.10000
 786.69;   33.300;   50.000;    0.000;-16.70000
 786.83;  -72.400;  -65.500;    0.000;-6.90000
 786.98; -104.300; -112.800;    0.000; 8.50000
 787.12;  -77.800;  -71.000;    0.000;-6.80000
 787.27;    2.200;   32.900;    0.000;-30.70000
 787.41;  159.600;  176.300;    0.000;-16.70000
 787.55;  -32.000;  -29.000;    0.000;-3.00000
 787.70;   55.100;   50.900;    0.000; 4.20000
 787.84;   56.600;   47.000;    0.000; 9.60000
 787.99;   15.500;   14.400;    0.000; 1.10000
 788.13;  -31.300;  -18.800;    0.000;-12.50000
 788.27;  -34.800;  -48.300;    0.000;13.50000
 788.42;   53.400;   92.500;    0.000;-39.10000
 788.56;    6.400;   -1.500;    0.000; 7.90000
 788.71; -109.000;  -74.700;    0.000;-34.30000
 788.85;  -26.900;  -48.200;    0.000;21.30000
 788.99;  -21.000;    5.600;    0.000;-26.60000
 789.14;   24.300;   60.300;    0.000;-36.00000
 789.28;  -80.300;  -84.200;    0.000; 3.89999
 789.43;  -71.100;  -69.900;    0.000;-1.20000
 789.57;   53.000;   47.100;    0.000; 5.90000
 789.71;   97.300;  102.400;    0.000;-5.10000
 789.86;   32.400;   53.100;    0.000;-20.70000
 790.00;   -0.600;  -34.000;    0.000;33.40000
 790.15;  -60.300;  -46.100;    0.000;-14.20000
 790.29;  -65.900;  -46.800;    0.000;-19.10000
 790.43;   10.800;   27.000;    0.000;-16.20000
 790.58;  -36.300;  -36.300;    0.000; 0.00000
 790.72;   28.000;   49.600;    0.000;-21.60000
 790.86;  -12.700;  -12.400;    0.000;-0.30000
 791.01;  -94.000;  -70.500;    0.000;-23.50000
 791.15; -178.100; -180.200;    0.000; 2.09999
 791.30;  -16.600;   -3.300;    0.000;-13.30000
 791.44;  -26.600;    7.700;    0.000;-34.30000
 791.58;  -10.700;  -27.300;    0.000;16.60000
 791.73;  -92.900; -117.900;    0.000;25.00000
 791.87;   25.400;   33.000;    0.000;-7.60000
 792.01;  -41.100;  -47.300;    0.000; 6.20000
 792.16;  -15.800;   29.500;    0.000;-45.30000
 792.30;   55.900;   42.400;    0.000;13.50000
 792.45;  -24.400;   16.600;    0.000;-41.00000
 792.59;   60.100;   48.300;    0.000;11.80000
 792.73; -135.500; -115.400;    0.000;-20.10000
 792.88; -113.400; -135.800;    0.000;22.40000
 793.02;   90.900;  103.400;    0.000;-12.50000
 793.16; -107.000;  -98.100;    0.000;-8.90000
 793.31; -128.800;  -98.100;    0.000;-30.70000
 793.45;  -10.500;  -44.300;    0.000;33.80000
 793.59;   -7.200;  -27.000;    0.000;19.80000
 793.74;   26.000;    6.200;    0.000;19.80000
 793.88;   18.500;   17.800;    0.000; 0.70000
 794.03;  -89.100;  -72.400;    0.000;-16.70000
 794.17;  -30.500;   -7.200;    0.000;-23.30000
 794.31;    3.900;   -1.400;    0.000; 5.30000
 794.46;  -35.500;  -36.900;    0.000; 1.40000
 794.60;  -33.800;  -50.600;    0.000;16.80000
 794.74; -103.600;  -79.900;    0.000;-23.70000
 794.89;   57.700;   38.200;    0.000;19.50000
 795.03;   83.800;   76.100;    0.000; 7.70000
 795.17;  -31.600;  -65.800;    0.000;34.20000
 795.32;  -44.500;  -48.800;    0.000; 4.30000
 795.46;  -26.300;  -58.600;    0.000;32.30000
 795.60;   30.100;   40.100;    0.000;-10.00000
 795.75;   48.500;   62.600;    0.000;-14.10000
 795.89;  150.600;  172.200;    0.000;-21.59999
 796.03;  -76.200;  -37.000;    0.000;-39.20000
 796.18;   83.600;   89.900;    0.000;-6.30000
 796.32;   -8.100;  -27.300;    0.000;19.20000
 796.46;  -64.000;  -71.500;    0.000; 7.50000
 796.61;  -50.400;  -25.900;    0.000;-24.50000
 796.75;   17.800;   -7.100;    0.000;24.90000
 796.89;   -2.800;   10.100;    0.000;-12.90000
 797.04;  -13.800;   32.100;    0.000;-45.90000
 797.18;   32.900;   18.800;    0.000;14.10000
 797.32;   46.300;   54.800;    0.000;-8.50000
 797.47;  -64.600;  -42.600;    0.000;-22.00000
 797.61;   -3.600;  -14.700;    0.000;11.10000
 797.75;   -8.100;   -8.800;    0.000; 0.70000
 797.90;   22.300;   50.300;    0.000;-28.00000
 798.04;   45.800;   46.700;    0.000;-0.90000
 798.18; -115.400; -107.300;    0.000;-8.10000
 798.33;  -84.600;  -74.300;    0.000;-10.30000
 798.47;   -2.600;  -38.200;    0.000;35.60000
 798.61;  122.300;  142.100;    0.000;-19.80000
 798.76;  -15.300;  -35.100;    0.000;19.80000
 798.90;  -34.400;  -35.200;    0.000; 0.80000
 799.04;  -46.900;  -40.600;    0.000;-6.30000
 799.19;  -30.500;  -45.300;    0.000;14.80000
 799.33;  -22.900;  -10.700;    0.000;-12.20000
 799.47;   70.300;   75.100;    0.000;-4.80000
 799.62;  -19.000;  -11.700;    0.000;-7.30000
 799.76;    3.000;   35.200;    0.000;-32.20000
 799.90;   86.300;   69.400;    0.000;16.90000
 800.05;   95.800;   90.400;    0.000; 5.40000
 800.19;  -22.800;   10.000;    0.000;-32.80000
 800.33;   71.900;   62.700;    0.000; 9.20000
 800.48;  -16.500;  -21.700;    0.000; 5.20000
 800.62;   -9.600;    4.500;    0.000;-14.10000
 800.76;  -74.900;  -63.900;    0.000;-11.00000
 800.91;  -97.200;  -86.800;    0.000;-10.39999
 801.05;  -71.500;  -79.300;    0.000; 7.80000
 801.19;  -42.000;  -38.400;    0.000;-3.60000
 801.33;   38.300;   67.300;    0.000;-29.00000
 801.48;  -67.500;  -66.200;    0.000;-1.30000
 801.62;    5.400;  -24.500;    0.000;29.90000
 801.76;   74.500;   55.400;    0.000;19.10000
 801.91;   39.900;   61.000;    0.000;-21.10000
 802.05;   13.400;   10.600;    0.000; 2.80000
 802.19;  -13.000;  -12.900;    0.000;-0.10000
 802.34;  -60.600;  -48.400;    0.000;-12.20000
 802.48;   74.700;   89.500;    0.000;-14.80000
 802.62;  -56.400;  -60.700;    0.000; 4.30000
 802.76;   34.500;   61.000;    0.000;-26.50000
 802.91;   50.300;   36.300;    0.000;14.00000
 803.05;   -0.200;   14.100;    0.000;-14.30000
 803.19; -166.200; -131.900;    0.000;-34.30000
 803.34;   81.200;   76.800;    0.000; 4.39999
 803.48;   95.600;   89.100;    0.000; 6.50000
 803.62;   22.500;   49.300;    0.000;-26.80000
 803.76;   13.200;   31.500;    0.000;-18.30000
 803.91;  -43.200;  -40.400;    0.000;-2.80000
 804.05;   -2.500;    3.900;    0.000;-6.40000
 804.19; -121.900; -120.000;    0.000;-1.90000
 804.34;   86.500;   90.700;    0.000;-4.20000
 804.48;  -44.900;  -40.500;    0.000;-4.40000
 804.62;   -4.000;    4.300;    0.000;-8.30000
 804.76;  -95.200;  -95.700;    0.000; 0.50000
 804.91;  -91.000;  -99.500;    0.000; 8.50000
 805.05;   53.000;   33.400;    0.000;19.60000
 805.19;   75.200;   71.500;    0.000; 3.70000
 805.34;  -46.500;  -15.100;    0.000;-31.40000
 805.48;   24.700;   16.400;    0.000; 8.30000
 805.62;  -34.300;  -15.300;    0.000;-19.00000
 805.76;  -28.800;  -45.000;    0.000;16.20000
 805.91;    4.100;   10.800;    0.000;-6.70000
 806.05; -107.200; -119.000;    0.000;11.80000
 806.19;   12.800;   -7.200;    0.000;20.00000
 806.33;  -52.300;  -25.700;    0.000;-26.60000
 806.48;  -61.500;  -83.700;    0.000;22.20000
 806.62;  -79.600;  -54.000;    0.000;-25.60000
 806.76;  127.700;  149.000;    0.000;-21.30000
 806.91;   29.400;   10.500;    0.000;18.90000
 807.05;  -55.200;  -13.300;    0.000;-41.90000
 807.19;  -22.000;  -28.400;    0.000; 6.40000
 807.33;  -20.900;  -37.300;    0.000;16.40000
 807.48;    7.700;    3.100;    0.000; 4.60000
 807.62;   28.400;   50.200;    0.000;-21.80000
 807.76; -103.300; -109.500;    0.000; 6.20000
 807.90;  -10.900;   39.600;    0.000;-50.50000
 808.05;   33.500;   44.000;    0.000;-10.50000
 808.19;  -24.400;   15.500;    0.000;-39.90000
 808.33;  -75.200;  -76.600;    0.000; 1.40000
 808.47;  -57.700;  -15.400;    0.000;-42.30000
 808.62;  -63.300;  -83.200;    0.000;19.90000
 808.76;  -32.100;  -22.800;    0.000;-9.30000
 808.90;  -51.900;  -66.700;    0.000;14.80000
 809.04;   11.400;   -9.800;    0.000;21.20000
 809.19;    3.100;  -24.300;    0.000;27.40000
 809.33;    2.000;   12.600;    0.000;-10.60000
 809.47;   67.400;   70.700;    0.000;-3.30000
 809.61;  -32.100;  -17.500;    0.000;-14.60000
 809.76;  -36.600;  -26.000;    0.000;-10.60000
 809.90;   31.800;   62.500;    0.000;-30.70000
 810.04;  -12.900;  -12.000;    0.000;-0.90000
 810.18;   26.400;   19.300;    0.000; 7.10000
 810.33;   42.100;   80.400;    0.000;-38.30000
 810.47;  -22.900;  -32.000;    0.000; 9.10000
 810.61;  -69.700;  -57.800;    0.000;-11.90000
 810.75;  -39.000;  -39.400;    0.000; 0.40000
 810.90;  -51.800;  -61.600;    0.000; 9.80000
 811.04;  -33.400;   -9.100;    0.000;-24.30000
 811.18;   20.900;   25.200;    0.000;-4.30000
 811.32;  -74.300;  -56.800;    0.000;-17.50000
 811.46; -142.100; -110.600;    0.000;-31.50001
 811.61;   67.400;   95.600;    0.000;-28.20000
 811.75;   22.900;    6.100;    0.000;16.80000
 811.89;   -2.300;   12.400;    0.000;-14.70000
 812.03;   -8.600;  -25.500;    0.000;16.90000
 812.18;  -57.700;  -24.400;    0.000;-33.30000
 812.32; -129.200; -130.500;    0.000; 1.30000
 812.46;   -5.500;   17.100;    0.000;-22.60000
 812.60;  -13.800;  -29.300;    0.000;15.50000
 812.75;  -71.400;  -45.200;    0.000;-26.20000
 812.89;  -63.400;  -76.200;    0.000;12.80000
 813.03;  -21.200;    3.600;    0.000;-24.80000
 813.17;  -61.000;  -52.700;    0.000;-8.30000
 813.31;  -18.000;    6.900;    0.000;-24.90000
 813.46; -166.900; -136.300;    0.000;-30.59999
 813.60;   53.200;   92.600;    0.000;-39.40000
 813.74;  266.300;  234.700;    0.000;31.59999
 813.88;    2.500;   -4.400;    0.000; 6.90000
 814.03;  -67.300;  -87.000;    0.000;19.70000
 814.17;   65.300;   53.500;    0.000;11.80000
 814.31;   51.100;   46.400;    0.000; 4.70000
 814.45;  -44.500;   -0.600;    0.000;-43.90000
 814.59;  -65.500;  -72.500;    0.000; 7.00000
 814.74;   73.100;   92.400;    0.000;-19.30000
 814.88;   67.400;   56.100;    0.000;11.30000
 815.02;  -26.600;    6.000;    0.000;-32.60000
 815.16;    8.400;    8.100;    0.000; 0.30000
 815.30;  -93.400;  -82.500;    0.000;-10.90000
 815.45;  -39.300;  -71.900;    0.000;32.60000
 815.59;  -82.500; -118.000;    0.000;35.50000
 815.73; -108.100; -128.700;    0.000;20.60000
 815.87;  -18.400;   -5.700;    0.000;-12.70000
 816.01;    1.900;   -7.500;    0.000; 9.40000
 816.16;  -24.800;  -25.100;    0.000; 0.30000
 816.30;  -53.200;  -60.100;    0.000; 6.90000
 816.44;  -34.200;  -23.500;    0.000;-10.70000
 816.58;   75.500;   88.900;    0.000;-13.40000
 816.72;  175.600;  162.900;    0.000;12.70001
 816.87;  -14.100;   -9.600;    0.000;-4.50000
 817.01;   87.800;   87.300;    0.000; 0.50000
 817.15;    7.700;   44.400;    0.000;-36.70000
 817.29;    6.000;   23.000;    0.000;-17.00000
 817.43;  -72.800;  -65.000;    0.000;-7.80000
 817.58;  -53.200;  -28.800;    0.000;-24.40000
 817.72;  -60.000;  -61.200;    0.000; 1.20000
 817.86;  -28.800;  -19.600;    0.000;-9.20000
 818.00;  -48.700;  -36.500;    0.000;-12.20000
 818.14;   66.500;   85.900;    0.000;-19.40000
 818.28;  -70.300;  -95.900;    0.000;25.60000
 818.43;  -53.600;  -24.000;    0.000;-29.60000
 818.57;  -49.700;  -18.100;    0.000;-31.60000
 818.71;  -12.100;   -7.700;    0.000;-4.40000
 818.85;  -31.500;   -7.200;    0.000;-24.30000
 818.99;   89.100;   91.000;    0.000;-1.90000
 819.14;  -18.400;  -49.900;    0.000;31.50000
 819.28;  -46.900;  -50.800;    0.000; 3.90000
 819.42; -146.600; -144.200;    0.000;-2.40001
 819.56;  -82.500;  -43.200;    0.000;-39.30000
 819.70;   41.500;   76.600;    0.000;-35.10000
 819.84;  -47.000;  -14.200;    0.000;-32.80000
 819.99;  -28.700;  -14.100;    0.000;-14.60000
 820.13;    3.300;   43.600;    0.000;-40.30000
 820.27;   50.300;    8.300;    0.000;42.00000
 820.41;  -11.500;  -20.200;    0.000; 8.70000
 820.55;   -0.800;   -8.700;    0.000; 7.90000
 820.69;   21.700;   26.200;    0.000;-4.50000
 820.84;    0.600;    9.800;    0.000;-9.20000
 820.98;  -23.600;   13.000;    0.000;-36.60000
 821.12;   37.700;   59.700;    0.000;-22.00000
 821.26;   12.900;   11.300;    0.000; 1.60000
 821.40;  -90.300;  -88.300;    0.000;-2.00000
 821.54;  -34.700;  -14.300;    0.000;-20.40000
 821.69;  -58.200;  -77.400;    0.000;19.20000
 821.83;  -85.800; -108.000;    0.000;22.20000
 821.97;  -48.500;  -61.000;    0.000;12.50000
 822.11; -120.800; -101.900;    0.000;-18.90000
 822.25;   22.500;   19.400;    0.000; 3.10000
 822.39;   20.200;   16.800;    0.000; 3.40000
 822.53;   -9.700;   -0.200;    0.000;-9.50000
 822.68;   31.300;   39.300;    0.000;-8.00000
 822.82;  -12.600;  -28.400;    0.000;15.80000
 822.96;   20.200;    8.600;    0.000;11.60000
 823.10; -105.200;  -65.100;    0.000;-40.10000
 823.24;  -39.400;  -35.800;    0.000;-3.60000
 823.38;   18.100;   12.300;    0.000; 5.80000
 823.53;  -58.000;  -32.300;    0.000;-25.70000
 823.67;  -32.900;  -16.900;    0.000;-16.00000
 823.81;  -48.200;  -50.100;    0.000; 1.90000
 823.95;  -15.500;  -31.000;    0.000;15.50000
 824.09;   51.200;   47.300;    0.000; 3.90000
 824.23;  -45.800;  -56.300;    0.000;10.50000
 824.37;   41.500;   77.700;    0.000;-36.20000
 824.52; -162.300; -152.300;    0.000;-10.00000
 824.66;  -55.200;    5.600;    0.000;-60.80000
 824.80; -141.300; -140.700;    0.000;-0.60001
 824.94;  -83.700;  -73.900;    0.000;-9.80000
 825.08;  110.600;  117.100;    0.000;-6.50000
 825.22;    7.600;   29.100;    0.000;-21.50000
 825.36;   -7.500;  -14.200;    0.000; 6.70000
 825.50;  -84.900;  -80.600;    0.000;-4.30000
 825.65;  -20.100;  -47.500;    0.000;27.40000
 825.79; -113.400; -117.700;    0.000; 4.30000
 825.93; -110.000;  -74.000;    0.000;-36.00000
 826.07;  -15.700;  -38.200;    0.000;22.50000
 826.21;   12.500;   24.200;    0.000;-11.70000
 826.35;  -57.000;  -38.800;    0.000;-18.20000
 826.49;  -58.900;  -60.100;    0.000; 1.20000
 826.63;  -14.200;   -8.200;    0.000;-6.00000
 826.78;  -76.100;  -79.900;    0.000; 3.80000
 826.92;   -9.500;    2.200;    0.000;-11.70000
 827.06;  -40.300;  -53.100;    0.000;12.80000
 827.20;  -20.900;  -21.600;    0.000; 0.70000
 827.34;   25.600;   19.000;    0.000; 6.60000
 827.48;   35.400;   72.700;    0.000;-37.30000
 827.62;   96.900;   85.600;    0.000;11.30000
 827.76;   -9.000;   12.500;    0.000;-21.50000
 827.90;  -14.000;  -41.600;    0.000;27.60000
 828.05;  -67.400;  -74.400;    0.000; 7.00000
 828.19;   22.200;   30.100;    0.000;-7.90000
 828.33;  -51.900;  -38.600;    0.000;-13.30000
 828.47;  -42.600;  -44.100;    0.000; 1.50000
 828.61;  -55.900;  -55.900;    0.000; 0.00000
 828.75;  -76.100;  -92.600;    0.000;16.50000
 828.89; -111.700;  -73.900;    0.000;-37.80000
 829.03;   -4.100;   11.600;    0.000;-15.70000
 829.17;   32.600;   59.500;    0.000;-26.90000
 829.32;  -85.100;  -89.700;    0.000; 4.60000
 829.46;   39.200;   68.000;    0.000;-28.80000
 829.60;  -17.200;    6.900;    0.000;-24.10000
 829.74;   73.500;  115.400;    0.000;-41.90000
 829.88;    8.300;   13.300;    0.000;-5.00000
 830.02;  -41.400;  -11.100;    0.000;-30.30000
 830.16;  -16.300;  -30.500;    0.000;14.20000
 830.30;   97.400;  104.300;    0.000;-6.90000
 830.44;   59.100;   59.600;    0.000;-0.50000
 830.58;   70.100;   78.600;    0.000;-8.50000
 830.73;  -61.600;  -69.000;    0.000; 7.40000
 830.87;   84.000;  125.100;    0.000;-41.10000
 831.01;   19.600;    2.100;    0.000;17.50000
 831.15;  -21.500;   18.000;    0.000;-39.50000
 831.29;    6.400;    5.400;    0.000; 1.00000
 831.43;  -77.300;  -26.200;    0.000;-51.10000
 831.57;  -24.200;  -45.900;    0.000;21.70000
 831.71;  -17.700;  -32.800;    0.000;15.10000
 831.85;   66.200;   80.000;    0.000;-13.80000
 831.99;   10.100;    0.000;    0.000;10.10000
 832.13;  -34.200;  -57.500;    0.000;23.30000
 832.27;   46.100;   69.500;    0.000;-23.40000
 832.42;   20.800;   12.600;    0.000; 8.20000
 832.56;   11.500;   20.200;    0.000;-8.70000
 832.70;  -97.000; -110.200;    0.000;13.20000
 832.84;  -13.400;  -17.100;    0.000; 3.70000
 832.98;  -74.300;  -40.500;    0.000;-33.80000
 833.12;  -17.600;   -4.000;    0.000;-13.60000
 833.26;  -92.200;  -95.300;    0.000; 3.10001
 833.40;   84.100;   71.800;    0.000;12.30000
 833.54;  -23.900;  -18.100;    0.000;-5.80000
 833.68;  -59.200;  -31.100;    0.000;-28.10000
 833.82;   59.200;   46.300;    0.000;12.90000
 833.96;  -23.500;   -3.500;    0.000;-20.00000
 834.10;   56.700;   73.500;    0.000;-16.80000
 834.24;  -64.500;  -52.400;    0.000;-12.10000
 834.39; -152.400; -174.500;    0.000;22.10001
 834.53;  -80.700;  -69.700;    0.000;-11.00000
 834.67;  101.100;   99.900;    0.000; 1.20000
 834.81;    3.500;   23.200;    0.000;-19.70000
 834.95;   68.300;   39.400;    0.000;28.90000
 835.09;  -16.100;  -11.300;    0.000;-4.80000
 835.23;  -71.100;  -63.700;    0.000;-7.40000
 835.37;    7.300;  -10.100;    0.000;17.40000
 835.51;  -29.300;  -13.000;    0.000;-16.30000
 835.65;   91.100;   90.100;    0.000; 1.00000
 835.79;   12.900;  -11.700;    0.000;24.60000
 835.93; -158.600; -120.900;    0.000;-37.70000
 836.07;   -7.800;  -13.300;    0.000; 5.50000
 836.21;  -21.000;  -25.800;    0.000; 4.80000
 836.35;   85.400;   91.600;    0.000;-6.20000
 836.49;   62.800;   93.300;    0.000;-30.50000
 836.63; -118.900;  -82.900;    0.000;-36.00000
 836.77;  -95.800;  -80.000;    0.000;-15.80000
 836.92;  -54.500;  -56.700;    0.000; 2.20000
 837.06;    1.600;    8.400;    0.000;-6.80000
 837.20;  -71.900;  -88.600;    0.000;16.70000
 837.34;   -1.900;   43.500;    0.000;-45.40000
 837.48;  -46.500;  -18.000;    0.000;-28.50000
 837.62;   21.400;   -4.200;    0.000;25.60000
 837.76; -127.600;  -99.300;    0.000;-28.30000
 837.90;  -56.100;  -35.900;    0.000;-20.20000
 838.04;   24.200;   -7.500;    0.000;31.70000
 838.18;   68.600;   73.200;    0.000;-4.60000
 838.32;   97.000;   75.100;    0.000;21.90000
 838.46;  -26.600;   -4.300;    0.000;-22.30000
 838.60;  100.000;   88.900;    0.000;11.10000
 838.74;  -10.000;   -6.000;    0.000;-4.00000
 838.88;  -39.800;  -48.000;    0.000; 8.20000
 839.02;   72.700;   72.900;    0.000;-0.20000
 839.16;  -30.500;  -21.400;    0.000;-9.10000
 839.30;  -44.100;    6.100;    0.000;-50.20000
 839.44;  -28.200;  -20.300;    0.000;-7.90000
 839.58;   83.200;  105.200;    0.000;-22.00000
 839.72;  -26.100;  -64.500;    0.000;38.40000
 839.86;   23.400;   50.400;    0.000;-27.00000
 840.00;    8.900;   11.200;    0.000;-2.30000
 840.14;  139.100;  128.100;    0.000;11.00000
 840.28; -111.900; -138.600;    0.000;26.70000
 840.42;  108.000;   99.000;    0.000; 9.00000
 840.56;   74.300;   78.800;    0.000;-4.50000
 840.70;   37.900;   60.600;    0.000;-22.70000
 840.84;   91.700;   86.600;    0.000; 5.10000
 840.98;  -37.600;  -21.100;    0.000;-16.50000
 841.12;  -70.000;  -95.900;    0.000;25.90000
 841.26;   31.800;   51.900;    0.000;-20.10000
 841.40;   40.900;   54.800;    0.000;-13.90000
 841.54;   -6.200;    7.000;    0.000;-13.20000
 841.68;  -61.600;  -32.100;    0.000;-29.50000
 841.82;  -77.200;  -67.100;    0.000;-10.10000
 841.96;   47.200;   48.700;    0.000;-1.50000
 842.10;  -11.700;   25.800;    0.000;-37.50000
 842.24;    9.700;    8.600;    0.000; 1.10000
 842.38;   63.500;   62.700;    0.000; 0.80000
 842.52;   18.100;    3.000;    0.000;15.10000
 842.66;  -97.900;  -64.800;    0.000;-33.10000
 842.80;    8.600;  -25.800;    0.000;34.40000
 842.94;   47.800;   46.100;    0.000; 1.70000
 843.08;   31.300;   -1.600;    0.000;32.90000
 843.22;   12.600;   22.000;    0.000;-9.40000
 843.36;  142.700;  141.800;    0.000; 0.89999
 843.50;  -53.500;  -13.800;    0.000;-39.70000
 843.64;  -40.400;  -34.300;    0.000;-6.10000
 843.78;   70.400;   67.600;    0.000; 2.80000
 843.92;  -96.700;  -74.600;    0.000;-22.10000
 844.06;  -77.700;  -44.300;    0.000;-33.40000
 844.20;  -33.500;  -51.100;    0.000;17.60000
 844.34;  -16.500;  -26.100;    0.000; 9.60000
 844.48; -145.900; -156.100;    0.000;10.20001
 844.62;   40.600;   54.900;    0.000;-14.30000
 844.76;   69.000;   37.800;    0.000;31.20000
 844.90;  -60.300;  -39.300;    0.000;-21.00000
 845.04;  -26.400;  -36.300;    0.000; 9.90000
 845.18;   52.700;   30.900;    0.000;21.80000
 845.32;  -83.300;  -74.500;    0.000;-8.80000
 845.46;  -15.300;  -26.000;    0.000;10.70000
 845.60;   -3.600;   23.400;    0.000;-27.00000
 845.74;  -33.000;    5.600;    0.000;-38.60000
 845.88;  -89.500;  -79.500;    0.000;-10.00000
 846.02;  -63.100;  -46.700;    0.000;-16.40000
 846.16;   14.400;   21.400;    0.000;-7.00000
 846.30;  -75.800;  -52.600;    0.000;-23.20000
 846.44;    4.100;    1.900;    0.000; 2.20000
 846.58;   73.800;   60.200;    0.000;13.60000
 846.72;  -73.400;  -52.700;    0.000;-20.70000
 846.86;  -16.900;  -15.800;    0.000;-1.10000
 847.00;  -57.200;  -68.200;    0.000;11.00000
 847.14;  -78.900;  -47.200;    0.000;-31.70000
 847.28; -103.700;  -88.100;    0.000;-15.60000
 847.42;  -69.400;  -73.500;    0.000; 4.10000
 847.56;  -23.600;    0.600;    0.000;-24.20000
 847.70;   -4.300;   -4.600;    0.000; 0.30000
 847.84;   28.300;    9.500;    0.000;18.80000
 847.98;  -74.800;  -70.200;    0.000;-4.60001
 848.12;  137.600;  142.800;    0.000;-5.20000
 848.26;   -7.300;  -25.100;    0.000;17.80000
 848.40; -106.800;  -73.600;    0.000;-33.20000
 848.54;  -14.300;   -5.300;    0.000;-9.00000
 848.68;  -56.500;  -38.900;    0.000;-17.60000
 848.82;  -21.100;    0.500;    0.000;-21.60000
 848.95;   10.000;   40.700;    0.000;-30.70000
 849.09;  -55.100;  -28.500;    0.000;-26.60000
 849.23;   15.000;   17.600;    0.000;-2.60000
 849.37;   92.100;  128.500;    0.000;-36.40000
 849.51;  -31.400;   -8.000;    0.000;-23.40000
 849.65;  -53.200;  -61.800;    0.000; 8.60000
 849.79;    6.400;    2.900;    0.000; 3.50000
 849.93;   73.600;  104.100;    0.000;-30.50000
 850.07;  -90.400;  -80.400;    0.000;-10.00000
 850.21;  -92.300;  -79.300;    0.000;-13.00000
 850.35;   45.200;   34.100;    0.000;11.10000
 850.49;  -56.200;  -54.500;    0.000;-1.70000
 850.63;  -68.900;  -51.400;    0.000;-17.50000
 850.77;   -2.800;    8.900;    0.000;-11.70000
 850.91;  -83.100;  -62.600;    0.000;-20.50000
 851.05;   17.400;   49.600;    0.000;-32.20000
 851.19;   44.700;   43.600;    0.000; 1.10000
 851.33; -124.800; -112.200;    0.000;-12.60001
 851.46;  -83.200; -103.200;    0.000;20.00000
 851.60; -101.500; -101.300;    0.000;-0.20000
 851.74;  -32.600;  -31.200;    0.000;-1.40000
 851.88;  -79.900;  -75.300;    0.000;-4.60000
 852.02;    4.500;   10.000;    0.000;-5.50000
 852.16;  -24.800;  -10.600;    0.000;-14.20000
 852.30; -112.500; -130.900;    0.000;18.39999
 852.44;    2.100;   11.000;    0.000;-8.90000
 852.58;   -5.700;  -45.100;    0.000;39.40000
 852.72;  -79.400;  -68.600;    0.000;-10.80000
 852.86;  -91.500;  -76.400;    0.000;-15.10000
 853.00;  -23.800;   -8.100;    0.000;-15.70000
 853.14; -101.400; -115.800;    0.000;14.40000
 853.28;  -63.500;  -43.400;    0.000;-20.10000
 853.41;   51.400;   59.600;    0.000;-8.20000
 853.55;  -29.600;  -72.900;    0.000;43.30000
 853.69;   86.400;   35.300;    0.000;51.10000
 853.83;  -88.800;  -77.600;    0.000;-11.20000
 853.97;   -3.900;  -24.100;    0.000;20.20000
 854.11;  -37.100;  -53.600;    0.000;16.50000
 854.25;  -35.900;  -51.900;    0.000;16.00000
 854.39;   69.100;   42.000;    0.000;27.10000
 854.53;   24.400;   10.200;    0.000;14.20000
 854.67;   85.400;   59.100;    0.000;26.30000
 854.81;  -77.800;  -94.400;    0.000;16.60000
 854.95;  -44.100;  -55.300;    0.000;11.20000
 855.08;   68.400;   53.100;    0.000;15.30000
 855.22;  -13.800;   16.400;    0.000;-30.20000
 855.36;   49.000;   85.600;    0.000;-36.60000
 855.50;   28.800;   34.600;    0.000;-5.80000
 855.64;  -38.500;  -38.900;    0.000; 0.40000
 855.78;  296.900;  300.900;    0.000;-4.00000
 855.92;  -66.800;  -57.600;    0.000;-9.20000
 856.06;  -46.900;  -54.400;    0.000; 7.50000
 856.20;   10.800;   59.000;    0.000;-48.20000
 856.34; -109.800;  -51.000;    0.000;-58.80000
 856.47;  -10.200;  -14.100;    0.000; 3.90000
 856.61; -104.000;  -49.500;    0.000;-54.50000
 856.75;   48.300;   58.500;    0.000;-10.20000
 856.89; -109.400;  -97.000;    0.000;-12.40000
 857.03;   25.500;   16.400;    0.000; 9.10000
 857.17;  -32.700;  -46.300;    0.000;13.60000
 857.31;  -65.300;  -77.500;    0.000;12.20000
 857.45;  -86.400;  -45.500;    0.000;-40.90000
 857.59;  -91.100;  -84.200;    0.000;-6.90000
 857.72; -114.300;  -59.200;    0.000;-55.10000
 857.86;   49.700;   27.000;    0.000;22.70000
 858.00;   43.700;   27.100;    0.000;16.60000
 858.14;  111.000;   71.000;    0.000;40.00000
 858.28;  -50.800;  -19.800;    0.000;-31.00000
 858.42;   19.100;   38.500;    0.000;-19.40000
 858.56;   16.400;   -2.700;    0.000;19.10000
 858.70;  -13.900;  -30.500;    0.000;16.60000
 858.84;   15.700;    3.300;    0.000;12.40000
 858.97;  -76.400;  -94.400;    0.000;18.00000
 859.11;   15.000;   49.300;    0.000;-34.30000
 859.25; -142.900; -155.900;    0.000;13.00000
 859.39;  -22.400;    4.400;    0.000;-26.80000
 859.53; -147.100; -159.700;    0.000;12.59999
 859.67;  -44.800;    3.700;    0.000;-48.50000
 859.81;  -28.300;  -12.900;    0.000;-15.40000
 859.94;  -52.200;  -52.100;    0.000;-0.10000
 860.08;   26.900;   12.500;    0.000;14.40000

